# Ag
# Form Factors from Chantler Tables
# DOI: https://dx.doi.org/10.18434/T4HS32
# automatically retrived 2019-02-28 using URL https://physics.nist.gov/cgi-bin/ffast/ffast.pl

# For f_rel the second term, which is 3/5th of the Cromer-Liberman value, is used as suggested by Chantler.
# Real and imaginary part of the formfactors are: f'(E)=f1(E)+f_rel+f_NT and f''(E)=f2(E)
# see also original publication:  https://doi.org/10.1063/1.555974

# Z = 47
# f_rel = -0.2826 e/atom  (Relativistic correction estimate)
# f_NT = -0.011234 e/atom (Nuclear Thomson correction)


#        E (eV)            f1 (e/atom)          f2 (e/atom)     
         10.69                2.8409               4.5969       
        11.42761             3.04646               4.905        
        12.21612             3.28198               5.2143       
        13.05903             3.54889               5.5216       
        13.9601              3.84865               5.8214       
        14.92335             4.17867               6.1064       
        15.95306             4.53536               6.3737       
        17.05382             4.91531               6.6206       
        18.23053             5.31506               6.8451       
        19.48844             5.73104               7.0457       
        20.83314              6.1596               7.2214       
        22.27063             6.59705               7.3718       
        23.8073              7.03979               7.4968       
        25.45001             7.48426               7.597        
        27.20606             7.92702               7.6732       
        29.08327             8.36475               7.7266       
        31.09002             8.79411               7.7586       
        33.23523             9.21172               7.7709       
        35.52846             9.61381               7.7652       
        37.97993             9.99579               7.7435       
        40.60054             10.3512               7.7077       
        43.40198             10.6696               7.6596       
        46.39671             10.9302               7.6011       
        49.59809             11.0819               7.534        
        53.02035              10.925               7.4599       
         54.782              10.3446               7.4215       
        55.6205              9.15723               7.4033       
        55.8441              7.57811               7.3984       
        56.1795              9.41576               10.577       
        56.67876             10.6211               10.414       
         57.018               11.065               10.308       
        60.58959             12.6538               9.3944       
         61.348              12.6611               9.239        
         62.287               12.23                9.053        
        62.5374              11.4631               9.0013       
         62.913              12.4638               10.557       
         63.852              13.4374               10.25        
        64.77028             13.8959               9.9783       
        69.23942             14.9135               8.947        
        74.01695             15.3648               8.2211       
        79.12411             15.6512               7.687        
        84.58368             15.8628               7.2641       
        90.41995             16.0128               6.9106       
         93.296               16.039               6.7617       
         94.724              15.9917               6.6926       
        95.1048              15.9036               6.6746       
         95.676              16.0128               6.8386       
        96.65893              16.103               6.7975       
         97.104              16.1295               6.7793       
        103.3284             16.3562               6.548        
        110.4581             16.5356               6.3253       
        118.0797             16.6898               6.1216       
        126.2272             16.8238               5.9328       
        134.9368             16.9382               5.7564       
        144.2475             17.0318               5.5901       
        154.2005             17.1026               5.4324       
        164.8404             17.1474               5.2817       
        176.2144              17.164               5.137        
        188.3732             17.1454               4.997        
        201.3709             17.0808               4.8607       
        215.2655             16.9624               4.7272       
        230.1188              16.776               4.5956       
        245.997              16.5012               4.4645       
        262.9708             16.1067               4.3331       
        281.1158             15.5436               4.2008       
        300.5128              14.727               4.0673       
        321.2482             13.4807               3.9327       
        343.4143             11.3239               3.797        
        359.366              8.17693               3.7041       
        364.8665             5.38571               3.673        
        365.344              4.87928               3.6703       
        366.3333              2.9088               3.6648       
        367.1099             2.81916               7.801        
        368.5335             4.33783               7.8731       
        370.936              4.39445               7.9977       
        372.4272             3.12064               8.0768       
        374.034              4.35482               11.122       
        374.664              4.77825               11.18        
        380.256              6.26493               11.714       
        392.4405             7.23412               12.994       
        419.5189             8.52533               16.302       
        448.4657             10.6783               19.39        
        479.4098             13.4741               21.687       
        512.4891             16.4378               23.018       
        547.8508             18.8361               23.418       
        559.972              19.1053               23.372       
        568.543              18.3518               23.295       
        570.8286             16.8858               23.269       
        574.257              18.7523               26.407       
        582.828              20.6937               26.281       
        585.6525             21.0721               26.233       
        590.352              21.5803               26.149       
        599.388              22.0441               25.967       
        601.7976             21.6033               25.915       
        605.412              22.6665               27.194       
        614.448              24.1171               26.984       
        626.0625             25.3913               26.689       
        669.2609             28.7197               25.43        
         703.15              30.3701               24.352       
        713.9125             30.4724               24.005       
        715.4399             30.3653               23.955       
        716.7825             30.0829               23.912       
        721.0875              30.826               24.813       
         731.85              31.7868               24.467       
        764.8052             33.5328               23.424       
        817.5768             35.4838               21.84        
        873.9896             36.9977               20.291       
        934.2948             38.2082               18.813       
        998.7612             39.2179               17.415       
        1067.676             40.0468               15.985       
        1141.345             40.6725               14.642       
        1220.098             41.1291               13.398       
        1304.285             41.4587               12.245       
        1394.281             41.6876               11.189       
        1490.486             41.8417               10.211       
        1593.329             41.8978               9.2467       
        1703.269             41.8626               8.3868       
        1820.795             41.7704               7.6195       
        1946.43              41.6141               6.9336       
        2080.733             41.4062               6.3204       
        2224.304             41.1462               5.7714       
        2377.781              40.818               5.2608       
        2541.848             40.3771               4.7785       
        2717.235             39.7652               4.3434       
        2904.724             38.8627               3.9522       
        3105.15              37.3492               3.551        
        3284.078             33.9635               3.2163       
        3319.406             32.0969               3.1564       
        3334.344             30.5512               3.1317       
        3347.749             26.7378               3.1097       
        3367.855             30.2844               10.402       
        3418.122             33.1732               10.281       
        3453.226             33.7562                10.2        
        3506.081             33.2333               10.08        
        3520.176             31.5999               10.043       
        3541.318             33.7502               13.624       
        3548.445             34.2479               13.594       
        3594.174              36.024               13.398       
        3729.684             38.1788               12.784       
        3786.771             38.1381               12.494       
        3793.288             37.9709               12.461       
        3801.994             37.3722               12.416       
        3824.829              38.566               14.155       
        3881.916             39.9808               13.844       
        4055.024             42.0364               12.923       
        4334.821             43.8319               11.573       
        4633.924             44.9334               10.367       
        4953.664             45.6723               9.3056       
        5295.467             46.1852               8.3559       
        5660.855             46.5439               7.5133       
        6051.453             46.7976               6.7612       
        6469.004             46.9766               6.0868       
        6915.365             47.1807               5.4706       
        7392.525             47.2894               4.901        
        7902.609             47.3505               4.3883       
        8447.89              47.3467                3.93        
        9030.794             47.3333               3.5141       
        9653.919             47.2863               3.1173       
        10320.04             47.2146               2.7679       
        11032.12             47.1294               2.4591       
        11793.34             47.0354               2.1854       
        12607.08             46.9353               1.9437       
        13476.97             46.8312               1.7304       
        14406.88             46.7237               1.5411       
        15400.95             46.6114               1.3695       
        16463.62              46.49                1.2159       
        17599.61             46.3552               1.0755       
        18813.98             46.1995              0.95208       
        20112.15             46.0118              0.84356       
        21499.88              45.766              0.74808       
        22983.38             45.3918              0.66401       
        24569.23              44.566               0.5899       
        25003.72             44.0222              0.57193       
        25386.43             42.7404              0.55683       
        25488.49             41.1991              0.55291       
        25641.57             42.7653               3.5841       
        26024.28             44.1811               3.4923       
        26264.5              44.5838               3.4365       
        28076.76              45.861               3.0917       
        30014.05             46.4369               2.7803       
        32085.02             46.7849               2.477        
        34298.89             46.9986               2.2014       
        36665.51             47.1402               1.9609       
        39195.43             47.2353               1.7469       
        41899.92             47.2982               1.5564       
        44791.01             47.3384               1.3868       
        47881.59             47.3627               1.2359       
        51185.42             47.4096               1.1011       
        54717.21              47.412              0.97517       
        58492.7              47.4053              0.86367       
        62528.7               47.393               0.765        
        66843.18             47.3772              0.67765       
        71455.36             47.3593              0.60032       
        76385.78             47.3402               0.5318       
        81656.4               47.321              0.47041       
        87290.69              47.301              0.41471       
        93313.74             47.2805              0.36563       
        99752.39             47.2603              0.32238       
        106635.3             47.2407              0.28427       
        113993.1              47.222              0.25054       
        121858.7             47.2041               0.2207       
        130266.9             47.1872              0.19442       
        139255.3             47.1713              0.17128       
        148864.0             47.1564               0.1509       
        159135.6             47.1426              0.13295       
        170115.9             47.1298              0.11714       
        181853.9              47.118              0.10322       
        194401.8             47.1071              0.090955      
        207815.6             47.0971              0.080152      
        222154.8              47.088              0.070635      
        237483.5             47.0796              0.06225       
        253869.9              47.072              0.054863      
        271386.9              47.065              0.048355      
        290112.6             47.0587              0.04262       
        310130.4             47.0529              0.037567      
        331529.4             47.0477              0.033114      
        354404.9             47.0429              0.02919       
        378858.8             47.0386              0.025732      
        405000.1             47.0348              0.022684      
        432945.1             47.0313              0.019998      
