# Al
# Form Factors from Chantler Tables
# DOI: https://dx.doi.org/10.18434/T4HS32
# automatically retrived 2019-02-27 using URL https://physics.nist.gov/cgi-bin/ffast/ffast.pl
#
# Z = 13
# f_rel = -0.022218 e/atom  (Relativistic correction estimate)
# f_NT = -0.0034361 e/atom (Nuclear Thomson correction)


#        E (eV)            f1 (e/atom)          f2 (e/atom)     
        8.208152             3.11903                0.0         
        8.333787             3.07927                0.0         
        8.36729              3.02769                0.0         
        8.417543             3.08902              0.10319       
        8.543178              3.1416              0.090457      
         10.69               3.16731              0.018351      
        11.42761              3.1565              0.01505       
        12.21612             3.14495              0.013667      
        13.05903              3.1324              0.01348       
        13.9601              3.11858               0.0142       
        14.92335             3.10318              0.015741      
        15.95306             3.08594              0.018134      
        17.05382             3.06659              0.021472      
        18.23053             3.04487              0.025892      
        19.48844             3.02055              0.031548      
        20.83314             2.99341              0.038589      
        22.27063             2.96319              0.04713       
        23.8073              2.92964              0.057225      
        25.45001             2.89315              0.068841      
        27.20606             2.85179              0.08183       
        29.08327             2.80561              0.095929      
        31.09002             2.75366              0.11075       
        33.23523             2.69458              0.12583       
        35.52846             2.62647              0.14038       
        37.97993             2.54633              0.15354       
        40.60054             2.45013               0.1649       
        43.40198             2.33262              0.17418       
        46.39671             2.18672              0.18132       
        49.59809             2.00256              0.18615       
        53.02035             1.76493               0.1883       
        56.67876             1.44912              0.18825       
        60.58959             1.01038               0.1863       
        64.77028             0.349959             0.18275       
        69.23942            -0.855994             0.17794       
         71.638              -2.2552              0.17511       
        72.7345              -4.06506             0.17377       
        73.0269              -6.02938             0.17342       
        73.4655              -4.25024              3.9275       
        74.01695             -3.26725              4.0145       
         74.562              -2.79918              4.1018       
        79.12411             -1.53427              4.8866       
        84.58368            -0.805339              5.8791       
        90.41995            -0.0106801             6.7792       
        96.65893             0.882403              7.5222       
        103.3284             1.83035               8.0732       
        110.4581             2.73433               8.4204       
        115.346              3.13128               8.5391       
        117.1115             2.99611               8.5619       
        117.5823             2.62299               8.5664       
        118.0797             3.00312               9.4208       
        118.2885             3.14862               9.4235       
        120.054              3.75272               9.4411       
        126.2272             4.87197               9.441        
        134.9368             6.04241               9.3134       
        144.2475             7.06078               9.0606       
        154.2005             7.95326               8.7125       
        164.8404             8.72829               8.2962       
        176.2144             9.39304               7.8365       
        188.3732             9.95657               7.3536       
        201.3709              10.429               6.8631       
        215.2655             10.8209               6.3766       
        230.1188             11.1424               5.9026       
        245.997              11.4037               5.447        
        262.9708             11.6133               5.0136       
        281.1158             11.7794               4.6044       
        300.5128              11.909               4.2203       
        321.2482             12.0075               3.8603       
        343.4143             12.0791               3.5244       
        367.1099             12.1278               3.2123       
        392.4405             12.1573               2.9236       
        419.5189             12.1706               2.6572       
        448.4657             12.1704               2.4121       
        479.4098              12.159               2.1872       
        512.4891             12.1381               1.9809       
        547.8508             12.1089               1.7921       
        585.6525             12.0725               1.6196       
        626.0625             12.0297               1.4625       
        669.2609             11.9809               1.3197       
        715.4399             11.9265               1.1901       
        764.8052             11.8662               1.0727       
        817.5768             11.7996              0.96659       
        873.9896             11.7255              0.87081       
        934.2948              11.642               0.7845       
        998.7612             11.5461              0.70682       
        1067.676             11.4444              0.62898       
        1141.345             11.3023              0.56009       
        1220.098             11.1171              0.49919       
        1304.285             10.8582              0.44531       
        1394.281              10.446              0.39707       
        1490.486             9.55217              0.35292       
        1528.408             8.67724              0.33771       
        1551.802             7.08006              0.32887       
        1558.04              5.18127              0.32657       
        1567.398              7.0582               4.0561       
        1590.792             8.76616               4.034        
        1593.329             8.86568               4.0316       
        1703.269             10.9116               3.8047       
        1820.795             11.8026               3.4335       
        1946.43              12.3246               3.0522       
        2080.733             12.6397               2.7132       
        2224.304             12.8559               2.4305       
        2377.781             13.0119               2.1807       
        2541.848             13.1269               1.9587       
        2717.235             13.2127               1.7592       
        2904.724             13.2769               1.5787       
        3105.15              13.3285               1.4117       
        3319.406             13.4011               1.2507       
        3548.445             13.4116               1.1075       
        3793.288             13.4114              0.98077       
        4055.024             13.4039              0.86856       
        4334.821             13.3916              0.76922       
        4633.924             13.3759              0.68127       
        4953.664             13.3581              0.60341       
        5295.467             13.3392              0.53446       
        5660.855             13.3198              0.47341       
        6051.453             13.3004              0.41935       
        6469.004             13.2816              0.37148       
        6915.365             13.2637              0.32822       
        7392.525             13.2456              0.28857       
        7902.609             13.2277              0.25373       
        8447.89              13.2105              0.22309       
        9030.794             13.1945               0.1958       
        9653.919             13.1795               0.1707       
        10320.04             13.1646              0.14882       
        11032.12             13.1503              0.12975       
        11793.34             13.1369              0.11313       
        12607.08             13.1243              0.098639      
        13476.97             13.1128              0.086005      
        14406.88             13.1021              0.07499       
        15400.95             13.0923              0.065387      
        16463.62             13.0833              0.057015      
        17599.61             13.0752              0.049716      
        18813.98             13.0677              0.043351      
        20112.15              13.061              0.037802      
        21499.88             13.0548              0.032964      
        22983.38             13.0493              0.028745      
        24569.23             13.0443              0.025066      
        26264.5              13.0397              0.021859      
        28076.76             13.0358              0.018978      
        30014.05             13.0321              0.016453      
        32085.02             13.0288              0.014264      
        34298.89             13.0258              0.012344      
        36665.51             13.0231              0.01066       
        39195.43             13.0206             0.0092057      
        41899.92             13.0184             0.0079499      
        44791.01             13.0164             0.0068656      
        47881.59             13.0146             0.0059291      
        51185.42              13.013             0.0051204      
        54717.21             13.0116             0.0044218      
        58492.7              13.0103              0.003818      
        62528.7              13.0091             0.0032967      
        66843.18             13.0081             0.0028466      
        71455.36             13.0072             0.0024579      
        76385.78             13.0064             0.0021224      
        81656.4              13.0057             0.0018326      
        87290.69              13.005             0.0015824      
        93313.74             13.0045             0.0013664      
        99752.39              13.004             0.0011798      
        106635.3             13.0035             0.0010188      
        113993.1             13.0031             0.00087971     
        121858.7             13.0027             0.00075962     
        130266.9             13.0024             0.00065593     
        139255.3             13.0022             0.00056639     
        148864.0             13.0019             0.00048908     
        159135.6             13.0017             0.00042232     
        170115.9             13.0015             0.00036468     
        181853.9             13.0013             0.0003149      
        194401.8             13.0012             0.00027192     
        207815.6              13.001             0.00023481     
        222154.8             13.0009             0.00020276     
        237483.5             13.0008             0.00017508     
        253869.9             13.0007             0.00015119     
        271386.9             13.0006             0.00013055     
        290112.6             13.0005             0.00011274     
        310130.4             13.0005             9.735e-05      
        331529.4             13.0004             8.4064e-05     
        354404.9             13.0004             7.2591e-05     
        378858.8             13.0003             6.2685e-05     
        405000.1             13.0003             5.413e-05      
        432945.1             13.0003             4.6743e-05     
