# Ar
# Form Factors from Chantler Tables
# DOI: https://dx.doi.org/10.18434/T4HS32
# automatically retrived 2019-02-28 using URL https://physics.nist.gov/cgi-bin/ffast/ffast.pl

# For f_rel the second term, which is 3/5th of the Cromer-Liberman value, is used as suggested by Chantler.
# Real and imaginary part of the formfactors are: f'(E)=f1(E)+f_rel+f_NT and f''(E)=f2(E)
# see also original publication:  https://doi.org/10.1063/1.555974

# Z = 18
# f_rel = -0.0282 e/atom  (Relativistic correction estimate)
# f_NT = -0.0044493 e/atom (Nuclear Thomson correction)


#        E (eV)            f1 (e/atom)          f2 (e/atom)     
         10.69               -2.55688               0.0         
        11.42761             -4.00996               0.0         
         12.152              -7.07227               0.0         
        12.21612             -7.6477                0.0         
         12.338              -9.53105               0.0         
        12.3876              -11.9746               0.0         
         12.462              -10.093               4.5247       
         12.648              -8.7553               5.0555       
        13.05903             -8.32095              6.4235       
        13.9601              -7.63879              10.449       
        14.92335             -4.68957              14.367       
        15.95306            -0.184234               16.5        
        17.05382             4.52316               16.433       
        18.23053             8.33043               14.663       
        19.48844             10.7845               12.053       
        20.83314             11.9786               9.3462       
        22.27063             12.2589               6.9752       
        23.8073              11.9916               5.0945       
         24.794              11.6829               4.1883       
        25.1735              11.5494               3.8917       
        25.2747              11.5101               3.817        
        25.45001             11.4521               3.6993       
         25.806              11.3281               3.4612       
        27.20606             10.8349               2.6975       
        29.08327             10.2231               1.9988       
        31.09002             9.66544                1.52        
        33.23523             9.17783               1.1966       
        35.52846             8.76122              0.98222       
        37.97993             8.40482              0.84376       
        40.60054             8.11116              0.75813       
        43.40198             7.86667              0.70911       
        46.39671             7.66343              0.68529       
        49.59809             7.49416              0.67864       
        53.02035             7.35244              0.68408       
        56.67876             7.23317              0.69799       
        60.58959             7.13172              0.71754       
        64.77028             7.04399               0.741        
        69.23942             6.96644              0.76735       
        74.01695             6.89605              0.79601       
        79.12411             6.83218              0.82669       
        84.58368             6.76853               0.8592       
        90.41995             6.70486              0.89335       
        96.65893             6.63892              0.92887       
        103.3284             6.56824              0.96534       
        110.4581             6.48974               1.002        
        118.0797             6.39944               1.0382       
        126.2272             6.29218               1.0731       
        134.9368             6.16102               1.1058       
        144.2475             5.99631               1.1354       
        154.2005             5.78428               1.161        
        164.8404             5.50443               1.1819       
        176.2144             5.12448               1.1973       
        188.3732             4.58949               1.2069       
        201.3709             3.79424               1.2104       
        215.2655             2.49575               1.2079       
        230.1188            -0.113261              1.1996       
        240.296              -4.75294              1.1754       
        242.354              -7.01147              1.1692       
        243.974              -10.3826              1.1643       
        244.9548             -16.3309              1.1613       
        245.997              -13.1494              11.814       
        246.0635             -12.9562              11.809       
        246.426              -12.301               11.787       
        247.0527             -12.9419              11.748       
        248.5365             -8.06178              16.906       
        250.104              -5.23505              16.766       
        252.246              -2.88933              16.579       
        262.9708             2.70864               15.693       
        281.1158             6.72406               14.375       
        300.5128             8.87011               13.194       
         313.6                9.5278               12.497       
         318.4                9.275                12.259       
         319.68               8.6594               12.196       
        321.2482             9.36235               13.497       
         321.6               9.49472               13.48        
         326.4               10.4119               13.257       
        343.4143             11.9186               12.521       
        367.1099              13.228               11.611       
        392.4405             14.2235               10.75        
        419.5189             15.0147               9.9311       
        448.4657             15.6524               9.1532       
        479.4098             16.1677               8.4154       
        512.4891              16.582               7.7167       
        547.8508             16.9113               7.0589       
        585.6525             17.1691               6.4422       
        626.0625             17.3665               5.8666       
        669.2609             17.5131               5.3316       
        715.4399             17.6172               4.8365       
        764.8052              17.689               4.3801       
        817.5768             17.7293               3.9608       
        873.9896             17.7465               3.5767       
        934.2948             17.7457               3.226        
        998.7612             17.7336               2.9066       
        1067.676             17.7035               2.5899       
        1141.345             17.6519               2.3089       
        1220.098             17.5882               2.0599       
        1304.285             17.5176               1.8372       
        1394.281              17.439               1.6349       
        1490.486             17.3539               1.4562       
        1593.329             17.2641               1.2982       
        1703.269             17.1699               1.1585       
        1820.795             17.0705               1.0348       
        1946.43              16.9641              0.92523       
        2080.733             16.8476              0.82805       
        2224.304             16.7157               0.7418       
        2377.781             16.5595              0.66517       
        2541.848             16.3623              0.59704       
        2717.235             16.0891              0.53641       
        2904.724              15.644               0.4824       
        3105.15              14.5379              0.42981       
        3138.842             14.0901              0.42124       
        3186.885             12.5541              0.40949       
        3199.697              10.706              0.40644       
        3218.914             12.5778               4.0445       
        3266.958             14.2753               3.9547       
        3319.406             15.0333               3.8605       
        3548.445             16.4395               3.4785       
        3793.288             17.1011               3.1275       
        4055.024             17.5109               2.8093       
        4334.821             17.7899               2.5178       
        4633.924             17.9817               2.2529       
        4953.664             18.1162               2.0148       
        5295.467             18.2108               1.8015       
        5660.855             18.2767               1.6105       
        6051.453              18.322               1.4394       
        6469.004             18.3939               1.2843       
        6915.365             18.4089               1.1397       
        7392.525              18.412               1.0114       
        7902.609             18.4075              0.89769       
        8447.89              18.3978              0.79678       
        9030.794             18.3906              0.70619       
        9653.919             18.3744              0.62255       
        10320.04             18.3552              0.54885       
        11032.12             18.3348               0.4839       
        11793.34             18.3139              0.42666       
        12607.08             18.2932              0.37619       
        13476.97             18.2732              0.33171       
        14406.88             18.2541              0.29142       
        15400.95              18.235              0.25528       
        16463.62             18.2165              0.22364       
        17599.61             18.1987              0.19592       
        18813.98             18.1819              0.17165       
        20112.15             18.1662              0.15039       
        21499.88             18.1516              0.13176       
        22983.38              18.138              0.11545       
        24569.23             18.1255              0.10116       
        26264.5               18.114              0.088636      
        28076.76             18.1044              0.077197      
        30014.05             18.0947              0.067103      
        32085.02             18.0856              0.05833       
        34298.89             18.0773              0.050704      
        36665.51             18.0696              0.044077      
        39195.43             18.0627              0.038316      
        41899.92             18.0563              0.033309      
        44791.01             18.0506              0.028957      
        47881.59             18.0454              0.025173      
        51185.42             18.0407              0.021885      
        54717.21             18.0365              0.019026      
        58492.7              18.0326              0.016541      
        62528.7              18.0292              0.01438       
        66843.18             18.0261              0.012502      
        71455.36             18.0234              0.010833      
        76385.78             18.0209             0.0093726      
        81656.4              18.0186             0.0081074      
        87290.69             18.0166             0.0070102      
        93313.74             18.0148             0.0060615      
        99752.39             18.0132             0.0052412      
        106635.3             18.0117              0.004532      
        113993.1             18.0104             0.0039187      
        121858.7             18.0093             0.0033885      
        130266.9             18.0083              0.00293       
        139255.3             18.0073             0.0025336      
        148864.0             18.0065             0.0021909      
        159135.6             18.0058             0.0018945      
        170115.9             18.0051             0.0016382      
        181853.9             18.0045             0.0014166      
        194401.8              18.004              0.001225      
        207815.6             18.0036             0.0010593      
        222154.8             18.0032              0.000916      
        237483.5             18.0028             0.00079211     
        253869.9             18.0025             0.00068497     
        271386.9             18.0022             0.00059233     
        290112.6             18.0019             0.00051222     
        310130.4             18.0017             0.00044295     
        331529.4             18.0015             0.00038305     
        354404.9             18.0013             0.00033125     
        378858.8             18.0012             0.00028645     
        405000.1              18.001             0.00024772     
        432945.1             18.0009             0.00021422     
