# B
# Form Factors from Chantler Tables
# DOI: https://dx.doi.org/10.18434/T4HS32
# automatically retrived 2019-02-27 using URL https://physics.nist.gov/cgi-bin/ffast/ffast.pl
#
# Z = 5
# f_rel = -0.0028487 e/atom  (Relativistic correction estimate)
# f_NT = -0.0012687 e/atom (Nuclear Thomson correction)


#        E (eV)            f1 (e/atom)          f2 (e/atom)     
         4.606               0.803768               0.0         
         4.6765              0.303582               0.0         
         4.6953             -0.292582               0.0         
         4.7235              0.323173              1.1721       
         4.794               0.861328              1.1548       
         10.69               2.36087              0.63908       
        11.42761             2.37363              0.60622       
        12.21612             2.37133              0.57327       
        13.05903             2.33137              0.54038       
        13.2006              2.31282              0.53508       
        13.40265             2.25109              0.52763       
        13.45653             2.18102              0.52567       
        13.53735             2.24636              0.65844       
        13.7394              2.30171              0.65819       
        13.9601              2.32499              0.65834       
        14.92335             2.36971              0.66435       
        15.95306             2.40102              0.67606       
        17.05382             2.43266              0.68985       
        18.23053             2.46722               0.7042       
        19.48844             2.50542              0.71767       
        20.83314             2.54708              0.72892       
        22.27063             2.59154               0.737        
        23.8073              2.63793              0.74132       
        25.45001             2.68534              0.74153       
        27.20606             2.73282              0.73754       
        29.08327             2.77952              0.72948       
        31.09002              2.8247              0.71764       
        33.23523             2.86772              0.70241       
        35.52846             2.90809              0.68424       
        37.97993             2.94544              0.66364       
        40.60054             2.97932              0.64107       
        43.40198             3.00989              0.61699       
        46.39671             3.03686              0.59184       
        49.59809             3.06015              0.56597       
        53.02035             3.07973              0.53974       
        56.67876             3.09557              0.51332       
        60.58959             3.10748               0.4868       
        64.77028             3.11523              0.46045       
        69.23942             3.11858              0.43449       
        74.01695             3.11726               0.4091       
        79.12411             3.11091               0.3844       
        84.58368             3.09899              0.36052       
        90.41995              3.0808              0.33727       
        96.65893             3.05508              0.31461       
        103.3284             3.02038              0.29304       
        110.4581             2.97471              0.27258       
        118.0797             2.91504              0.25321       
        126.2272             2.83673              0.23492       
        134.9368             2.73225               0.2177       
        144.2475             2.58847              0.20152       
        154.2005             2.37982              0.18634       
        164.8404             2.04643              0.17213       
        176.2144             1.38697              0.15886       
         184.24              0.147973             0.15049       
         187.06              -1.46533             0.14773       
        187.812              -3.39747             0.14701       
        188.3732             -2.53721              3.9624       
         188.94              -1.39355              3.9498       
         191.76              0.364335              3.8885       
        201.3709             2.05708               3.6926       
        215.2655             3.05311               3.4372       
        230.1188             3.66377               3.1815       
        245.997              4.09461               2.9293       
        262.9708             4.41524               2.684        
        281.1158             4.65896               2.4491       
        300.5128             4.84566               2.227        
        321.2482             4.98856               2.0189       
        343.4143             5.09713               1.8254       
        367.1099             5.17848               1.6466       
        392.4405             5.23814               1.4821       
        419.5189             5.28048               1.3316       
        448.4657              5.309                1.1942       
        479.4098             5.32654               1.0694       
        512.4891             5.33541              0.95617       
        547.8508             5.33746              0.85376       
        585.6525             5.33457              0.76132       
        626.0625             5.32733              0.67805       
        669.2609             5.31709              0.60317       
        715.4399             5.30466              0.53594       
        764.8052             5.29073              0.47567       
        817.5768             5.27579              0.42165       
        873.9896             5.26025              0.37337       
        934.2948             5.24449              0.33033       
        998.7612             5.22885              0.29207       
        1067.676             5.21494               0.256        
        1141.345             5.19961              0.22436       
        1220.098             5.18432              0.19662       
        1304.285             5.16952              0.17231       
        1394.281             5.15544              0.15101       
        1490.486             5.14217              0.13235       
        1593.329             5.12975              0.11599       
        1703.269             5.11821              0.10165       
        1820.795             5.10752              0.089083      
        1946.43              5.09766              0.078072      
        2080.733              5.0886              0.068421      
        2224.304             5.08029              0.059964      
        2377.781              5.0727              0.052552      
        2541.848             5.06577              0.046056      
        2717.235             5.05947              0.040363      
        2904.724             5.05375              0.035374      
        3105.15              5.04875              0.030872      
        3319.406             5.04408              0.026837      
        3548.445             5.03978              0.02332       
        3793.288             5.03582              0.020164      
        4055.024             5.03219              0.017435      
        4334.821             5.02888              0.015075      
        4633.924             5.02588              0.013035      
        4953.664             5.02316              0.011271      
        5295.467             5.02071             0.0097453      
        5660.855              5.0185             0.0084264      
        6051.453             5.01652              0.007286      
        6469.004             5.01474             0.0062986      
        6915.365             5.01314             0.0054448      
        7392.525             5.01172             0.0047067      
        7902.609             5.01044             0.0040687      
        8447.89               5.0093             0.0035172      
        9030.794             5.00828              0.003036      
        9653.919             5.00737              0.002607      
        10320.04             5.00654             0.0022386      
        11032.12             5.00581             0.0019223      
        11793.34             5.00516             0.0016507      
        12607.08             5.00457             0.0014174      
        13476.97             5.00405             0.0012171      
        14406.88             5.00359             0.0010451      
        15400.95             5.00318             0.00089746     
        16463.62             5.00282             0.00077065     
        17599.61             5.00249             0.00066175     
        18813.98              5.0022             0.00056825     
        20112.15             5.00195             0.00048795     
        21499.88             5.00172              0.000419      
        22983.38             5.00152             0.0003598      
        24569.23             5.00135             0.00030896     
        26264.5              5.00119             0.0002653      
        28076.76             5.00105             0.0002273      
        30014.05             5.00093             0.0001946      
        32085.02             5.00082             0.0001666      
        34298.89             5.00072             0.00014263     
        36665.51             5.00064             0.00012211     
        39195.43             5.00056             0.00010455     
        41899.92             5.00049             8.9505e-05     
        44791.01             5.00044             7.6628e-05     
        47881.59             5.00038             6.5604e-05     
        51185.42             5.00034             5.6166e-05     
        54717.21              5.0003             4.8086e-05     
        58492.7              5.00026             4.1169e-05     
        62528.7              5.00023             3.5246e-05     
        66843.18              5.0002             3.0176e-05     
        71455.36             5.00018             2.5835e-05     
        76385.78             5.00016             2.2118e-05     
        81656.4              5.00014             1.8973e-05     
        87290.69             5.00012             1.6348e-05     
        93313.74             5.00011             1.4085e-05     
        99752.39             5.00009             1.2136e-05     
        106635.3             5.00008             1.0456e-05     
        113993.1             5.00007             9.0092e-06     
        121858.7             5.00006             7.7624e-06     
        130266.9             5.00006             6.6881e-06     
        139255.3             5.00005             5.7625e-06     
        148864.0             5.00004             4.965e-06      
        159135.6             5.00004             4.2779e-06     
        170115.9             5.00003             3.6858e-06     
        181853.9             5.00003             3.1757e-06     
        194401.8             5.00003             2.7362e-06     
        207815.6             5.00002             2.3575e-06     
        222154.8             5.00002             2.0313e-06     
        237483.5             5.00002             1.7502e-06     
        253869.9             5.00002             1.5079e-06     
        271386.9             5.00001             1.2993e-06     
        290112.6             5.00001             1.1194e-06     
        310130.4             5.00001             9.6452e-07     
        331529.4             5.00001             8.3104e-07     
        354404.9             5.00001             7.1603e-07     
        378858.8             5.00001             6.1693e-07     
        405000.1             5.00001             5.3155e-07     
        432945.1             5.00001             4.5799e-07     
