# Be
# Form Factors from Chantler Tables
# DOI: https://dx.doi.org/10.18434/T4HS32
# automatically retrived 2019-02-27 using URL https://physics.nist.gov/cgi-bin/ffast/ffast.pl
#
# Z = 4
# f_rel = -0.0017882 e/atom  (Relativistic correction estimate)
# f_NT = -0.00097394 e/atom (Nuclear Thomson correction)


#        E (eV)            f1 (e/atom)          f2 (e/atom)     
         8.2516              1.55864                0.0         
         8.3779              1.50947                0.0         
        8.41158              1.45794                0.0         
         8.4621              1.50266              0.097318      
         8.5884              1.53756              0.10286       
         10.69                1.5848              0.21247       
        11.42761             1.60258              0.24694       
        12.21612             1.62546               0.2787       
        13.05903             1.65269               0.3066       
        13.9601              1.68318              0.32988       
        14.92335             1.71575               0.3482       
        15.95306             1.74924              0.36151       
        17.05382             1.78263              0.37006       
        18.23053             1.81506              0.37426       
        19.48844             1.84585              0.37463       
        20.83314             1.87451              0.37173       
        22.27063             1.90068              0.36615       
        23.8073              1.92412              0.35841       
        25.45001             1.94468               0.349        
        27.20606              1.9623              0.33833       
        29.08327             1.97692              0.32677       
        31.09002              1.9885              0.31461       
        33.23523              1.997               0.30208       
        35.52846             2.00234              0.28933       
        37.97993             2.00432              0.27642       
        40.60054             2.00267              0.26351       
        43.40198             1.99706               0.2507       
        46.39671             1.98704              0.23807       
        49.59809             1.97202              0.22569       
        53.02035              1.9512               0.2136       
        56.67876             1.92346              0.20184       
        60.58959             1.88729              0.19044       
        64.77028             1.84054              0.17941       
        69.23942             1.78009              0.16876       
        74.01695             1.70124              0.15851       
        79.12411             1.59647              0.14865       
        84.58368              1.4529              0.13921       
        90.41995             1.24579              0.13017       
        96.65893             0.918719             0.12155       
        103.3284             0.291953             0.11333       
         108.78              -1.10059             0.10728       
        110.4581             -2.81138             0.10553       
        110.889              -4.79732             0.10509       
        111.555              -2.70425              4.0732       
         113.22             -0.867705              4.007        
        118.0797             0.743908              3.8249       
        126.2272             1.85031               3.5508       
        134.9368             2.50334               3.285        
        144.2475             2.95829               3.0279       
        154.2005             3.29619               2.7813       
        164.8404             3.55465               2.5461       
        176.2144             3.75464               2.3237       
        188.3732              3.9099               2.1149       
        201.3709             4.03003               1.9199       
        215.2655             4.12212               1.7389       
        230.1188             4.19162               1.5715       
        245.997              4.24285               1.4173       
        262.9708             4.27928               1.2758       
        281.1158             4.30376               1.1464       
        300.5128             4.31861               1.0285       
        321.2482             4.32576              0.92117       
        343.4143             4.32684              0.82386       
        367.1099             4.32314              0.73579       
        392.4405             4.31578              0.65626       
        419.5189             4.30567              0.58459       
        448.4657             4.29356              0.52011       
        479.4098             4.28005              0.46212       
        512.4891             4.26557              0.41004       
        547.8508              4.2505              0.36339       
        585.6525             4.23517              0.32168       
        626.0625             4.21985              0.28447       
        669.2609             4.20476              0.25134       
        715.4399             4.19008              0.22187       
        764.8052             4.17592              0.19572       
        817.5768              4.1624              0.17254       
        873.9896             4.14957              0.15201       
        934.2948             4.13749              0.13385       
        998.7612             4.12618              0.11782       
        1067.676             4.11586              0.10297       
        1141.345             4.10588              0.089977      
        1220.098             4.09645              0.078625      
        1304.285             4.08767              0.068705      
        1394.281             4.07955              0.060037      
        1490.486             4.07207              0.052463      
        1593.329             4.06521              0.045844      
        1703.269             4.05894              0.04006       
        1820.795             4.05324              0.035006      
        1946.43              4.04805              0.030589      
        2080.733             4.04336              0.02673       
        2224.304             4.03909              0.023204      
        2377.781             4.03518              0.020139      
        2541.848             4.03162              0.01748       
        2717.235             4.02839              0.015171      
        2904.724             4.02551              0.013168      
        3105.15              4.02306              0.011388      
        3319.406             4.02063             0.0098151      
        3548.445             4.01844             0.0084596      
        3793.288             4.01646             0.0072914      
        4055.024             4.01468             0.0062835      
        4334.821             4.01308             0.0054148      
        4633.924             4.01165             0.0046662      
        4953.664             4.01037             0.0040211      
        5295.467             4.00923             0.0034651      
        5660.855              4.0082             0.0029861      
        6051.453             4.00729             0.0025732      
        6469.004             4.00647             0.0022175      
        6915.365             4.00574             0.0019109      
        7392.525              4.0051             0.0016467      
        7902.609             4.00452             0.0014191      
        8447.89              4.00401             0.0012229      
        9030.794             4.00356             0.0010525      
        9653.919             4.00316             0.00090177     
        10320.04              4.0028             0.00077264     
        11032.12             4.00248              0.000662      
        11793.34             4.00219             0.00056721     
        12607.08             4.00194             0.00048599     
        13476.97             4.00171             0.0004164      
        14406.88             4.00151             0.00035677     
        15400.95             4.00134             0.00030569     
        16463.62             4.00118             0.00026192     
        17599.61             4.00104             0.00022441     
        18813.98             4.00092             0.00019228     
        20112.15             4.00081             0.00016475     
        21499.88             4.00072             0.00014116     
        22983.38             4.00063             0.00012094     
        24569.23             4.00056             0.00010363     
        26264.5              4.00049             8.8788e-05     
        28076.76             4.00043             7.594e-05      
        30014.05             4.00038             6.4915e-05     
        32085.02             4.00034             5.549e-05      
        34298.89              4.0003             4.7433e-05     
        36665.51             4.00026             4.0546e-05     
        39195.43             4.00023             3.466e-05      
        41899.92              4.0002             2.9628e-05     
        44791.01             4.00018             2.5326e-05     
        47881.59             4.00016             2.1649e-05     
        51185.42             4.00014             1.8512e-05     
        54717.21             4.00012             1.5845e-05     
        58492.7              4.00011             1.3563e-05     
        62528.7              4.00009             1.161e-05      
        66843.18             4.00008             9.9374e-06     
        71455.36             4.00007             8.5061e-06     
        76385.78             4.00006             7.281e-06      
        81656.4              4.00006             6.2323e-06     
        87290.69             4.00005             5.3347e-06     
        93313.74             4.00004             4.5664e-06     
        99752.39             4.00004             3.9087e-06     
        106635.3             4.00003             3.3457e-06     
        113993.1             4.00003             2.8639e-06     
        121858.7             4.00003             2.4514e-06     
        130266.9             4.00002             2.0984e-06     
        139255.3             4.00002             1.7962e-06     
        148864.0             4.00002             1.5375e-06     
        159135.6             4.00002             1.3161e-06     
        170115.9             4.00001             1.1265e-06     
        181853.9             4.00001             9.6428e-07     
        194401.8             4.00001             8.2541e-07     
        207815.6             4.00001             7.0654e-07     
        222154.8             4.00001             6.0479e-07     
        237483.5             4.00001             5.177e-07      
        253869.9             4.00001             4.4314e-07     
        271386.9             4.00001             3.7933e-07     
        290112.6               4.0               3.247e-07      
        310130.4               4.0               2.7794e-07     
        331529.4               4.0               2.3792e-07     
        354404.9               4.0               2.0366e-07     
        378858.8               4.0               1.7433e-07     
        405000.1               4.0               1.4923e-07     
        432945.1               4.0               1.2774e-07     
