# C
# Form Factors from Chantler Tables
# DOI: https://dx.doi.org/10.18434/T4HS32
# automatically retrived 2019-02-28 using URL https://physics.nist.gov/cgi-bin/ffast/ffast.pl

# For f_rel the second term, which is 3/5th of the Cromer-Liberman value, is used as suggested by Chantler.
# Real and imaginary part of the formfactors are: f'(E)=f1(E)+f_rel+f_NT and f''(E)=f2(E)
# see also original publication:  https://doi.org/10.1063/1.555974

# Z = 6
# f_rel = -0.0018 e/atom  (Relativistic correction estimate)
# f_NT = -0.0016442 e/atom (Nuclear Thomson correction)


#        E (eV)            f1 (e/atom)          f2 (e/atom)     
         6.272              -0.320134               0.0         
         6.368               -1.17579               0.0         
         6.3936              -2.18154               0.0         
         6.432               -1.16186              1.9697       
         6.528              -0.276671              1.9598       
         10.69               2.10173               1.7392       
        11.42761             2.22488               1.7134       
        12.21612             2.33994               1.6847       
        13.05903             2.44742               1.6524       
        13.9601               2.5471               1.6161       
        14.92335             2.63805               1.5757       
        15.95306             2.71844               1.5311       
        17.05382             2.78446               1.4826       
        18.23053             2.82559               1.4304       
        19.1198              2.80931               1.3911       
        19.41245             2.75154               1.3783       
        19.48844             2.67983               1.3749       
        19.49049             2.67501               1.3748       
        19.60755             2.75433               1.5242       
        19.9002              2.82926               1.5191       
        20.83314             2.91938               1.5052       
        22.27063             3.00738               1.4898       
        23.8073              3.08738               1.4761       
        25.45001             3.16576               1.4626       
        27.20606             3.24448               1.4477       
        29.08327             3.32364               1.4301       
        31.09002              3.4028               1.4091       
        33.23523             3.48136               1.3844       
        35.52846             3.55864               1.3557       
        37.97993             3.63385               1.323        
        40.60054             3.70629               1.2864       
        43.40198             3.77526               1.2462       
        46.39671             3.84022               1.2028       
        49.59809             3.90069               1.1569       
        53.02035             3.95635               1.1089       
        56.67876             4.00697               1.0595       
        60.58959             4.05263               1.0091       
        64.77028              4.0929              0.95827       
        69.23942             4.12801              0.90756       
        74.01695             4.15805              0.85736       
        79.12411             4.18316               0.808        
        84.58368              4.2034              0.75955       
        90.41995             4.21865              0.71222       
        96.65893             4.22883               0.6663       
        103.3284             4.23389              0.62204       
        110.4581             4.23373              0.57959       
        118.0797             4.22817              0.53908       
        126.2272             4.21665              0.49886       
        134.9368             4.19786              0.46044       
        144.2475             4.17119              0.42445       
        154.2005             4.13557              0.39083       
        164.8404             4.08928               0.3595       
        176.2144             4.02965              0.33037       
        188.3732              3.9525              0.30333       
        201.3709             3.85109              0.27829       
        215.2655             3.71374              0.25513       
        230.1188             3.51819              0.23374       
        245.997              3.21423              0.21403       
        262.9708             2.64704              0.19587       
        278.124              1.26093              0.18175       
        281.1158             0.407656             0.17916       
        282.381             -0.335665             0.17809       
        283.5162             -2.24717             0.17713       
        285.219             -0.265349              3.9387       
        289.476              1.47293               3.8777       
        300.5128             2.89123               3.7279       
        321.2482             4.00159               3.4725       
        343.4143             4.65259               3.2143       
        367.1099             5.10424               2.9562       
        392.4405             5.43616               2.7033       
        419.5189             5.68561               2.4612       
        448.4657              5.8745               2.2326       
        479.4098             6.01732               2.019        
        512.4891             6.12442               1.8212       
        547.8508             6.20354               1.6391       
        585.6525             6.26062               1.4724       
        626.0625             6.30033               1.3204       
        669.2609             6.32635               1.1823       
        715.4399             6.34162               1.0571       
        764.8052             6.34849              0.94391       
        817.5768             6.34886              0.84179       
        873.9896             6.34469              0.74981       
        934.2948             6.33647              0.66709       
        998.7612             6.32562              0.59282       
        1067.676             6.31267              0.52585       
        1141.345             6.29863              0.46573       
        1220.098             6.28281              0.40956       
        1304.285             6.26551              0.36016       
        1394.281             6.24774              0.31672       
        1490.486             6.23009              0.27853       
        1593.329             6.21289              0.24494       
        1703.269             6.19636               0.2154       
        1820.795             6.18064              0.18942       
        1946.43              6.16581              0.16658       
        2080.733             6.15192               0.1465       
        2224.304             6.13897              0.12883       
        2377.781             6.12696               0.1133       
        2541.848             6.11588              0.099638      
        2717.235             6.10571              0.087625      
        2904.724             6.09643              0.077061      
        3105.15               6.0879              0.06742       
        3319.406             6.07984              0.058701      
        3548.445             6.07234              0.051109      
        3793.288             6.06543              0.044499      
        4055.024             6.05909              0.038744      
        4334.821             6.05329              0.033733      
        4633.924             6.04802              0.02937       
        4953.664             6.04323              0.025572      
        5295.467              6.0389              0.022265      
        5660.855             6.03498              0.019289      
        6051.453              6.0314              0.016703      
        6469.004             6.02815              0.014463      
        6915.365              6.0252              0.012524      
        7392.525             6.02255              0.010844      
        7902.609             6.02016             0.0093904      
        8447.89              6.01801             0.0081313      
        9030.794              6.0161             0.0070314      
        9653.919             6.01439             0.0060514      
        10320.04             6.01284             0.0052079      
        11032.12             6.01144              0.004482      
        11793.34             6.01018             0.0038573      
        12607.08             6.00906             0.0033197      
        13476.97             6.00805              0.002857      
        14406.88             6.00715             0.0024588      
        15400.95             6.00635             0.0021161      
        16463.62             6.00563             0.0018212      
        17599.61             6.00499             0.0015673      
        18813.98             6.00443             0.0013489      
        20112.15             6.00392             0.0011609      
        21499.88             6.00348             0.00099909     
        22983.38             6.00308             0.00085985     
        24569.23             6.00272             0.00074001     
        26264.5              6.00241             0.00063687     
        28076.76             6.00213             0.00054642     
        30014.05             6.00189             0.00046835     
        32085.02             6.00167             0.00040143     
        34298.89             6.00148             0.00034407     
        36665.51              6.0013             0.00029491     
        39195.43             6.00115             0.00025277     
        41899.92             6.00102             0.00021666     
        44791.01              6.0009             0.0001857      
        47881.59             6.00079             0.00015917     
        51185.42              6.0007             0.00013643     
        54717.21             6.00062             0.00011694     
        58492.7              6.00054             0.00010023     
        62528.7              6.00048             8.5909e-05     
        66843.18             6.00042             7.3635e-05     
        71455.36             6.00037             6.3115e-05     
        76385.78             6.00033             5.4098e-05     
        81656.4              6.00029             4.6381e-05     
        87290.69             6.00025             3.9791e-05     
        93313.74             6.00022             3.4136e-05     
        99752.39              6.0002             2.9285e-05     
        106635.3             6.00017             2.5124e-05     
        113993.1             6.00015             2.1554e-05     
        121858.7             6.00013             1.8491e-05     
        130266.9             6.00012             1.5863e-05     
        139255.3              6.0001             1.3609e-05     
        148864.0             6.00009             1.1675e-05     
        159135.6             6.00008             1.0016e-05     
        170115.9             6.00007             8.5931e-06     
        181853.9             6.00006             7.372e-06      
        194401.8             6.00005             6.3245e-06     
        207815.6             6.00005             5.4258e-06     
        222154.8             6.00004             4.6549e-06     
        237483.5             6.00004             3.9934e-06     
        253869.9             6.00003             3.426e-06      
        271386.9             6.00003             2.9392e-06     
        290112.6             6.00003             2.5216e-06     
        310130.4             6.00002             2.1633e-06     
        331529.4             6.00002             1.8559e-06     
        354404.9             6.00002             1.5922e-06     
        378858.8             6.00001             1.366e-06      
        405000.1             6.00001             1.1719e-06     
        432945.1             6.00001             1.0054e-06     
