# Ca
# Form Factors from Chantler Tables
# DOI: https://dx.doi.org/10.18434/T4HS32
# automatically retrived 2019-02-27 using URL https://physics.nist.gov/cgi-bin/ffast/ffast.pl
#
# Z = 20
# f_rel = -0.05872 e/atom  (Relativistic correction estimate)
# f_NT = -0.0054748 e/atom (Nuclear Thomson correction)


#        E (eV)            f1 (e/atom)          f2 (e/atom)     
         10.69               6.74674                0.0         
        11.42761             6.71135                0.0         
        12.21612             6.66883                0.0         
        13.05903             6.61724                0.0         
        13.9601              6.55391                0.0         
        14.92335              6.475                 0.0         
        15.95306             6.37476                0.0         
        17.05382             6.24417                0.0         
        18.23053             6.06801                0.0         
        19.48844             5.81829                0.0         
        20.83314             5.43633                0.0         
        22.27063             4.77106                0.0         
        23.8073              3.24162                0.0         
         24.892             -0.374657               0.0         
         25.273              -6.20519               0.0         
        25.3746              -14.1462               0.0         
        25.45001             -9.70039              16.608       
         25.527              -4.18744              16.03        
         25.908              4.30351               13.471       
        27.20606             10.2441               7.5878       
        29.08327             10.6666               3.5839       
        31.09002             9.98904               1.9921       
        33.23523             9.39459               1.288        
        35.52846             8.94477               0.9443       
        37.97993             8.59656              0.76777       
        40.60054              8.3021              0.67898       
         42.826              8.04432              0.64639       
        43.40198             7.92888               0.6422       
        43.4815              7.90165              0.64174       
        43.6563              7.77713              0.64081       
        43.9185              7.86952               0.8598       
         44.574              7.92308              0.86461       
        46.39671             7.90007              0.88583       
        49.59809             7.81742              0.94439       
        53.02035             7.74364               1.0243       
        56.67876             7.68645               1.1216       
        60.58959             7.64749               1.2338       
        64.77028              7.6278               1.3587       
        69.23942             7.62852               1.494        
        74.01695             7.65082               1.6367       
        79.12411             7.70078               1.7833       
        84.58368             7.76858               1.9298       
        90.41995             7.85896               2.0717       
        96.65893             7.97064               2.2042       
        103.3284             8.10171               2.3229       
        110.4581             8.24823               2.4206       
        118.0797             8.40291               2.4932       
        126.2272             8.55822               2.5393       
        134.9368             8.70566               2.5589       
        144.2475             8.84003               2.553        
        154.2005             8.95323               2.5241       
        164.8404              9.0384               2.4748       
        176.2144             9.08864               2.4086       
        188.3732             9.09648               2.3287       
        201.3709             9.05296               2.2384       
        215.2655              8.9465               2.1408       
        230.1188             8.76054               2.0387       
        245.997              8.46935               1.9345       
        262.9708             8.02921               1.8301       
        281.1158             7.35724               1.7271       
        300.5128             6.26827               1.6267       
        321.2482               4.2                 1.5296       
        339.472             -0.601802              1.4524       
         343.0               -3.23076              1.4382       
        343.4143             -3.6994               1.4366       
        344.668              -5.61786              1.4316       
        346.0536             -10.9196              1.4262       
         348.25              -6.84427               11.0        
         349.65              -7.4721               10.949       
         351.75              -3.36124              15.626       
        353.328              -1.51093              15.545       
         357.0               1.07948               15.358       
        367.1099             4.79675               14.866       
        392.4405             8.98735               13.749       
        419.5189             11.0578               12.683       
        429.044              11.3462               12.334       
        435.611              11.0638               12.102       
        437.3622             10.3698               12.041       
        439.989              11.3158               13.502       
        446.556              12.3521               13.275       
        448.4657             12.5462               13.21        
        479.4098             14.5209               12.219       
        512.4891             15.8108               11.265       
        547.8508             16.7789               10.357       
        585.6525              17.528                9.5         
        626.0625             18.1133               8.6947       
        669.2609             18.5712               7.9426       
        715.4399              18.929               7.244        
        764.8052             19.2085               6.5931       
        817.5768              19.418               5.9873       
        873.9896             19.5708               5.4288       
        934.2948             19.6784               4.9166       
        998.7612             19.7509               4.4486       
        1067.676             19.8007               4.0045       
        1141.345             19.8129               3.6007       
        1220.098              19.802               3.2354       
        1304.285             19.7743               2.9062       
        1394.281             19.7367               2.6095       
        1490.486             19.6846               2.3292       
        1593.329             19.6197               2.0811       
        1703.269              19.548               1.8618       
        1820.795             19.4721               1.6627       
        1946.43              19.3889               1.4833       
        2080.733             19.3001               1.3245       
        2224.304             19.2061               1.1839       
        2377.781             19.1059               1.0591       
        2541.848             18.9976              0.94843       
        2717.235             18.8776              0.85013       
        2904.724             18.7401              0.76275       
        3105.15              18.5764              0.67803       
        3319.406             18.3498              0.59753       
        3548.445              18.008              0.52709       
        3793.288             17.3592               0.4654       
        3957.338             16.2338              0.43026       
        4017.909             14.7223              0.41835       
        4034.062             12.8987              0.41526       
        4055.024              14.547               4.0127       
        4058.29              14.7569               4.0068       
        4118.862              16.44                3.8997       
        4334.821              18.059               3.564        
        4633.924             18.8984               3.1991       
        4953.664             19.3754               2.882        
        5295.467             19.6982               2.5972       
        5660.855             19.9227               2.3263       
        6051.453             20.0785               2.0813       
        6469.004             20.1876               1.8605       
        6915.365             20.2632               1.6616       
        7392.525             20.3145               1.4837       
        7902.609             20.3488               1.3249       
        8447.89               20.409               1.1797       
        9030.794             20.4237               1.0471       
        9653.919              20.421              0.92433       
        10320.04             20.4108              0.81604       
        11032.12              20.396              0.72049       
        11793.34              20.378              0.63616       
        12607.08             20.3582              0.56174       
        13476.97             20.3376              0.49605       
        14406.88             20.3166              0.43807       
        15400.95             20.2959              0.38688       
        16463.62             20.2759              0.34169       
        17599.61             20.2569              0.30162       
        18813.98             20.2384              0.26458       
        20112.15             20.2201              0.23209       
        21499.88             20.2026              0.20359       
        22983.38              20.186               0.1786       
        24569.23             20.1706              0.15668       
        26264.5              20.1564              0.13745       
        28076.76              20.143              0.11986       
        30014.05             20.1302              0.10431       
        32085.02             20.1182              0.090778      
        34298.89             20.1071              0.079005      
        36665.51             20.0969              0.06876       
        39195.43             20.0875              0.059846      
        41899.92             20.0789              0.052088      
        44791.01             20.0711              0.045337      
        47881.59             20.0639              0.039461      
        51185.42             20.0575              0.034348      
        54717.21             20.0516              0.029897      
        58492.7              20.0463              0.026024      
        62528.7              20.0415              0.022653      
        66843.18             20.0372              0.019719      
        71455.36             20.0333              0.017165      
        76385.78             20.0298              0.014942      
        81656.4              20.0267              0.012994      
        87290.69             20.0239              0.011274      
        93313.74             20.0213             0.0097822      
        99752.39              20.019             0.0084877      
        106635.3              20.017             0.0073645      
        113993.1             20.0151              0.00639       
        121858.7             20.0135             0.0055445      
        130266.9              20.012             0.0048109      
        139255.3             20.0107             0.0041744      
        148864.0             20.0095             0.0036222      
        159135.6             20.0084              0.003143      
        170115.9             20.0075             0.0027273      
        181853.9             20.0067             0.0023665      
        194401.8             20.0059             0.0020535      
        207815.6             20.0053             0.0017819      
        222154.8             20.0047             0.0015463      
        237483.5             20.0041             0.0013418      
        253869.9             20.0037             0.0011643      
        271386.9             20.0033             0.0010104      
        290112.6             20.0029             0.00087675     
        310130.4             20.0026             0.00076082     
        331529.4             20.0023             0.00066022     
        354404.9              20.002             0.00057292     
        378858.8             20.0018             0.00049717     
        405000.1             20.0016             0.00043144     
        432945.1             20.0014             0.0003744      
