# Cd
# Form Factors from Chantler Tables
# DOI: https://dx.doi.org/10.18434/T4HS32
# automatically retrived 2019-02-27 using URL https://physics.nist.gov/cgi-bin/ffast/ffast.pl
#
# Z = 48
# f_rel = -0.47951 e/atom  (Relativistic correction estimate)
# f_NT = -0.011244 e/atom (Nuclear Thomson correction)


#        E (eV)            f1 (e/atom)          f2 (e/atom)     
         9.114              -0.255482               0.0         
         9.2535              -1.31522               0.0         
         9.2907              -2.57675               0.0         
         9.3465              -1.23253              2.4746       
         9.486              -0.0888866             2.3409       
         10.69               0.805089              1.5527       
        11.42761             0.447887              1.4576       
        12.21612            -0.0465177             1.5479       
        13.05903            -0.638675              1.8001       
        13.9601              -1.31418              2.2301       
        14.92335             -2.0534               2.8761       
        15.95306             -2.81785              3.7878       
        17.05382             -3.54108              5.0153       
        18.23053             -4.12454              6.5929       
        19.48844             -4.44143              8.5207       
        20.83314             -4.35157              10.746       
        22.27063             -3.72673              13.156       
        23.8073              -2.48166              15.578       
        25.45001            -0.601492              17.804       
        27.20606             1.84418               19.625       
        29.08327             4.65148               20.871       
        31.09002             7.72864               21.439       
        33.23523             10.7988               21.312       
        35.52846             13.6598               20.551       
        37.97993             16.1566               19.278       
        40.60054             18.1877               17.636       
        43.40198             19.7108               15.795       
        46.39671             20.7453               13.904       
        49.59809             21.3457               12.077       
        53.02035              21.578               10.39        
        56.67876             21.4957               8.882        
        60.58959             21.0974               7.5685       
        64.77028             20.0512               6.4461       
         65.562               19.594               6.2613       
        66.5655              18.1776               6.0383       
        66.8331              16.4471               5.9809       
        67.2345               18.353               9.3131       
         68.238               19.987               8.8611       
        69.23942             20.6144               8.4419       
        74.01695             21.4606               6.8057       
        79.12411             21.3777               5.6179       
        84.58368             21.0768               4.7652       
        90.41995             20.7147               4.1313       
        96.65893             20.3349                3.65        
        103.3284             19.9289               3.2803       
        105.448              19.7777               3.1855       
        107.062              19.5992               3.1194       
        107.4924             19.4588               3.1025       
        108.138              19.5484               3.3138       
        109.752              19.5803               3.2602       
        110.4581             19.5713               3.2381       
        118.0797              19.373               3.0421       
        126.2272             19.1492               2.8981       
        134.9368              18.933               2.7933       
        144.2475             18.7262               2.7191       
        154.2005             18.5253               2.6687       
        164.8404             18.3249               2.6363       
        176.2144             18.1169               2.6226       
        188.3732             17.9042               2.6536       
        201.3709             17.6951               2.691        
        215.2655             17.4569               2.7323       
        230.1188             17.1855               2.775        
        245.997              16.8631               2.8169       
        262.9708             16.4655               2.8562       
        281.1158             15.9582               2.8906       
        300.5128             15.2867               2.9178       
        321.2482              14.359               2.9368       
        343.4143             12.9964               2.9468       
        367.1099             10.7613               2.9475       
        392.4405             5.74265               2.9384       
        395.626              4.46424               2.9367       
        401.6815            -0.152779              2.933        
         402.29              -1.19614              2.9326       
        403.2963             -4.5567               2.932        
        405.7185             -1.56461              10.686       
        408.4475             -1.12406              10.825       
        410.0895             -3.26016              10.908       
        411.774             -0.911513              16.362       
        412.5525            0.0686458              16.428       
         418.71              3.39588               16.954       
        419.5189             3.65174               17.024       
        448.4657             8.37082               19.663       
        479.4098             11.9797               22.013       
        512.4891             15.4735               23.387       
        547.8508             18.6093               23.936       
        585.6525             21.0086               23.768       
         604.17              21.3556               23.501       
        613.4175             20.4904               23.338       
        615.8835             18.9637               23.292       
        619.5825             20.8403               26.48        
        626.0625             22.3481               26.351       
         628.83              22.7411               26.294       
        637.686               23.638               26.105       
        647.4465              24.011               25.888       
        650.0493             23.5362               25.828       
        653.9535             24.5866               27.128       
        663.714              25.9872               26.905       
        669.2609             26.5609               26.776       
        715.4399             30.0001               25.514       
        754.796              31.7476               24.279       
        764.8052             31.8609               23.969       
        766.349              31.8163               23.922       
        769.4298             31.4077               23.827       
        774.051              32.1559               24.751       
        785.604               33.107                24.4        
        817.5768             34.6667               23.457       
        873.9896             36.5926               21.905       
        934.2948             38.1048               20.411       
        998.7612             39.3637               18.998       
        1067.676             40.4395               17.471       
        1141.345             41.2418               16.005       
        1220.098             41.8352               14.641       
        1304.285             42.2838               13.382       
        1394.281              42.593               12.216       
        1490.486             42.8011               11.152       
        1593.329             42.9337               10.182       
        1703.269             42.9952               9.2462       
        1820.795              42.962               8.3851       
        1946.43              42.8569               7.6167       
        2080.733             42.6965               6.9297       
        2224.304             42.4829               6.3148       
        2377.781             42.2148               5.7641       
        2541.848             41.8768               5.257        
        2717.235             41.4267               4.7781       
        2904.724             40.8113               4.3441       
        3105.15              39.9196               3.9055       
        3319.406             38.0892               3.4718       
        3466.75              35.1406               3.2183       
        3519.812              31.687               3.1345       
        3533.962             27.7885               3.1128       
        3548.445              30.356               10.619       
        3555.187             31.4895               10.592       
        3608.25              34.5292               10.378       
        3652.46              35.2329               10.205       
        3708.365             34.6373               9.9942       
        3723.273             32.9486               9.9338       
        3745.635             35.1307               13.575       
        3793.288             37.1821               13.324       
        3801.54              37.3998               13.281       
        3937.64              39.3697               12.588       
        3997.91              39.2963               12.284       
        4013.982             38.5238               12.204       
        4038.09              39.7007               13.936       
        4055.024              40.229               13.848       
        4098.36              41.0801               13.626       
        4334.821             43.4595               12.493       
        4633.924             45.0537               11.248       
        4953.664             46.0867               10.11        
        5295.467             46.7933               9.0844       
        5660.855             47.2835               8.1591       
        6051.453              47.625               7.3317       
        6469.004             47.8624               6.5913       
        6915.365             48.0258               5.9281       
        7392.525             48.2126               5.3234       
        7902.609             48.3099               4.7715       
        8447.89              48.3643               4.2744       
        9030.794             48.3786               3.8216       
        9653.919             48.3459               3.3892       
        10320.04             48.2818               3.0085       
        11032.12             48.2016               2.6731       
        11793.34             48.1115               2.3769       
        12607.08             48.0147               2.1138       
        13476.97             47.9129               1.8813       
        14406.88             47.8076               1.6761       
        15400.95             47.6992               1.4934       
        16463.62              47.585               1.3271       
        17599.61             47.4612               1.1782       
        18813.98             47.3218               1.0427       
        20112.15             47.1592              0.92363       
        21499.88              46.959              0.81889       
        22983.38              46.687              0.72667       
        24569.23             46.2404              0.64542       
        26176.98             45.0549              0.57713       
        26264.5              44.8946              0.57375       
        26577.64             43.7823              0.56193       
        26684.49             42.2514              0.55799       
        26844.76             43.8062               3.5688       
        27245.42             45.2128               3.478        
        28076.76             46.1921               3.3013       
        30014.05             47.0987               2.9524       
        32085.02             47.5564               2.6447       
        34298.89             47.8434               2.3707       
        36665.51             48.0376               2.1173       
        39195.43             48.1669               1.8884       
        41899.92             48.2538               1.6831       
        44791.01             48.3108               1.4993       
        47881.59             48.3465               1.3351       
        51185.42              48.367               1.1886       
        54717.21             48.4096               1.0564       
        58492.7              48.4082              0.93595       
        62528.7              48.3995              0.82931       
        66843.18             48.3861              0.73488       
        71455.36             48.3697              0.65126       
        76385.78             48.3515              0.57719       
        81656.4               48.333              0.51076       
        87290.69             48.3135              0.45045       
        93313.74              48.293              0.39729       
        99752.39             48.2726              0.35043       
        106635.3             48.2525              0.30911       
        113993.1             48.2333              0.27268       
        121858.7             48.2149               0.2404       
        130266.9             48.1974               0.2119       
        139255.3             48.1809              0.18679       
        148864.0             48.1654              0.16466       
        159135.6              48.151              0.14517       
        170115.9             48.1376              0.12798       
        181853.9             48.1252              0.11284       
        194401.8             48.1138              0.099495      
        207815.6             48.1033              0.087731      
        222154.8             48.0936              0.077361      
        237483.5             48.0848              0.06822       
        253869.9             48.0767              0.060162      
        271386.9             48.0694              0.053057      
        290112.6             48.0627              0.046794      
        310130.4             48.0566              0.041271      
        331529.4              48.051              0.036402      
        354404.9              48.046              0.032108      
        378858.8             48.0414              0.028321      
        405000.1             48.0373              0.024982      
        432945.1             48.0335              0.022038      
