# Cl
# Form Factors from Chantler Tables
# DOI: https://dx.doi.org/10.18434/T4HS32
# automatically retrived 2019-02-27 using URL https://physics.nist.gov/cgi-bin/ffast/ffast.pl
#
# Z = 17
# f_rel = -0.040526 e/atom  (Relativistic correction estimate)
# f_NT = -0.0044718 e/atom (Nuclear Thomson correction)


#        E (eV)            f1 (e/atom)          f2 (e/atom)     
         6.664               -6.48754               0.0         
         6.766               -8.71036               0.0         
         6.7932              -10.9679               0.0         
         6.834               -9.15794              4.2153       
         6.936               -7.81269              4.6476       
         10.69               8.13522               10.632       
        11.42761             9.37473               8.5751       
        12.21612             9.87659               6.6572       
        13.05903             9.88286               5.0456       
        13.9601              9.60491               3.7778       
        14.92335             9.19403               2.822        
        15.95306              8.7443               2.1201       
        17.05382              8.3067               1.6121       
         17.15               8.27119               1.5764       
        17.4125              8.17619               1.4849       
        17.4825              8.15072               1.4619       
        17.5875              8.11518               1.4302       
         17.85               8.02747               1.3517       
        18.23053             7.90572               1.2497       
        19.48844             7.54978              0.99072       
        20.83314             7.24039              0.80826       
        22.27063             6.97002              0.68213       
        23.8073              6.73643              0.59833       
        25.45001             6.53547              0.54685       
        27.20606             6.36342              0.52018       
        29.08327              6.2171              0.51307       
        31.09002             6.09417              0.52094       
        33.23523             5.99205              0.53952       
        35.52846             5.90798              0.56545       
        37.97993             5.83917              0.59621       
        40.60054             5.78294              0.63002       
        43.40198              5.7368              0.66568       
        46.39671             5.69856              0.70249       
        49.59809             5.66627              0.74008       
        53.02035             5.64012              0.77828       
        56.67876             5.61503              0.81703       
        60.58959             5.59156              0.85625       
        64.77028              5.5685               0.8958       
        69.23942             5.54462              0.93544       
        74.01695             5.51848               0.9747       
        79.12411             5.48825               1.013        
        84.58368             5.45162               1.0498       
        90.41995             5.40568               1.0844       
        96.65893             5.34667               1.1163       
        103.3284             5.26968               1.1447       
        110.4581              5.1682               1.169        
        118.0797             5.03347               1.1889       
        126.2272             4.85335               1.204        
        134.9368             4.60508               1.1885       
        144.2475             4.24737               1.1615       
        154.2005             3.72741               1.1286       
        164.8404             2.94256               1.0906       
        176.2144             1.65231               1.0484       
        188.3732            -0.963484              1.0027       
         196.0               -5.11596             0.97436       
        197.568              -7.04464             0.96858       
         199.0               -10.3536             0.96331       
         199.8               -15.8375             0.96038       
        200.592              -13.2492              10.701       
         201.0               -12.3713              10.68        
        201.3709             -12.8311              10.66        
        201.3984             -12.963               10.659       
        202.608              -8.42225              15.407       
         204.0               -5.64408              15.302       
        205.632              -3.66881              15.182       
        215.2655             1.76525               14.507       
        230.1188             5.36699               13.57        
        245.997              7.46894               12.673       
        262.9708             8.63568               11.807       
        264.796              8.66322               11.719       
        268.849               8.401                11.526       
        269.9298             7.81491               11.476       
        271.551              8.59454               12.699       
        275.604              9.44336               12.518       
        281.1158             10.0833               12.278       
        300.5128             11.5368               11.49        
        321.2482             12.6019               10.723       
        343.4143              13.452               9.9762       
        367.1099             14.1442               9.2522       
        392.4405             14.7107               8.5551       
        419.5189             15.1732               7.8877       
        448.4657             15.5481               7.2524       
        479.4098             15.8486               6.651        
        512.4891             16.0858               6.0847       
        547.8508             16.2691               5.5541       
        585.6525             16.4066               5.0594       
        626.0625             16.5034               4.5999       
        669.2609             16.5699               4.175        
        715.4399             16.6094               3.7833       
        764.8052             16.6268               3.4235       
        817.5768             16.6272               3.0938       
        873.9896             16.6118               2.7921       
        934.2948             16.5843               2.5173       
        998.7612             16.5482               2.2683       
        1067.676              16.528               2.021        
        1141.345             16.4667               1.7948       
        1220.098             16.3923               1.594        
        1304.285             16.3103               1.4171       
        1394.281              16.223               1.2611       
        1490.486             16.1307               1.1235       
        1593.329              16.033               1.0019       
        1703.269             15.9283              0.89432       
        1820.795             15.8134              0.79917       
        1946.43              15.6835              0.71488       
        2080.733             15.5299              0.64014       
        2224.304             15.3369              0.57382       
        2377.781              15.072              0.51489       
        2541.848              14.649               0.4625       
        2717.235             13.6771              0.41585       
        2765.952             13.0165              0.40432       
        2808.288             11.4668              0.39473       
        2819.578             9.60284              0.39224       
        2836.512             11.4882               4.0625       
        2878.848               13.2                3.9785       
        2904.724             13.6816               3.9285       
        3105.15              15.3069               3.541        
        3319.406             16.0128               3.1795       
        3548.445              16.443               2.8622       
        3793.288              16.743               2.5699       
        4055.024             16.9472               2.2984       
        4334.821             17.0895               2.0558       
        4633.924             17.1898               1.839        
        4953.664             17.2603               1.6453       
        5295.467             17.3095               1.4714       
        5660.855             17.3868               1.3153       
        6051.453             17.4057               1.1664       
        6469.004              17.411               1.0345       
        6915.365             17.4076              0.91748       
        7392.525             17.3984              0.81377       
        7902.609             17.3854              0.72183       
        8447.89              17.3702              0.64026       
        9030.794             17.3541              0.56708       
        9653.919             17.3362              0.49958       
        10320.04             17.3166              0.44014       
        11032.12             17.2966              0.38779       
        11793.34             17.2769              0.34169       
        12607.08             17.2579              0.30019       
        13476.97             17.2389               0.2628       
        14406.88             17.2202              0.23008       
        15400.95             17.2023              0.20144       
        16463.62             17.1853              0.17637       
        17599.61             17.1694              0.15443       
        18813.98             17.1545              0.13522       
        20112.15             17.1407               0.1184       
        21499.88             17.1279              0.10368       
        22983.38             17.1161              0.09079       
        24569.23             17.1054              0.079504      
        26264.5              17.0955              0.069623      
        28076.76             17.0867              0.060598      
        30014.05             17.0785              0.052638      
        32085.02             17.0709              0.045724      
        34298.89             17.0639              0.039719      
        36665.51             17.0575              0.034503      
        39195.43             17.0517              0.029972      
        41899.92             17.0464              0.026037      
        44791.01             17.0416              0.022619      
        47881.59             17.0373              0.01965       
        51185.42             17.0334              0.01707       
        54717.21             17.0299              0.01483       
        58492.7              17.0267              0.012883      
        62528.7              17.0239              0.011169      
        66843.18             17.0214             0.0096669      
        71455.36             17.0191             0.0083672      
        76385.78              17.017             0.0072424      
        81656.4              17.0151             0.0062681      
        87290.69             17.0135             0.0054237      
        93313.74              17.012             0.0046931      
        99752.39             17.0107             0.0040609      
        106635.3             17.0095             0.0035139      
        113993.1             17.0084             0.0030406      
        121858.7             17.0075             0.0026311      
        130266.9             17.0067             0.0022767      
        139255.3             17.0059             0.0019701      
        148864.0             17.0052             0.0017048      
        159135.6             17.0047             0.0014752      
        170115.9             17.0041             0.0012765      
        181853.9             17.0037             0.0011046      
        194401.8             17.0032             0.00095585     
        207815.6             17.0029             0.00082714     
        222154.8             17.0025             0.00071576     
        237483.5             17.0022             0.00061938     
        253869.9              17.002             0.00053598     
        271386.9             17.0018             0.00046381     
        290112.6             17.0016             0.00040136     
        310130.4             17.0014             0.00034732     
        331529.4             17.0012             0.00030056     
        354404.9             17.0011             0.00026009     
        378858.8              17.001             0.00022508     
        405000.1             17.0008             0.00019477     
        432945.1             17.0007             0.00016855     
