# Co
# Form Factors from Chantler Tables
# DOI: https://dx.doi.org/10.18434/T4HS32
# automatically retrived 2019-02-28 using URL https://physics.nist.gov/cgi-bin/ffast/ffast.pl

# For f_rel the second term, which is 3/5th of the Cromer-Liberman value, is used as suggested by Chantler.
# Real and imaginary part of the formfactors are: f'(E)=f1(E)+f_rel+f_NT and f''(E)=f2(E)
# see also original publication:  https://doi.org/10.1063/1.555974

# Z = 27
# f_rel = -0.0738 e/atom  (Relativistic correction estimate)
# f_NT = -0.0067859 e/atom (Nuclear Thomson correction)


#        E (eV)            f1 (e/atom)          f2 (e/atom)     
         10.69               4.07651               1.5562       
        11.42761             4.07931               1.6781       
        12.21612             4.08644               1.8115       
        13.05903             4.09903               1.9562       
        13.9601              4.11806               2.1124       
        14.92335             4.14462               2.2802       
        15.95306             4.17992               2.4597       
        17.05382             4.22518               2.6509       
        18.23053             4.28168               2.8536       
        19.48844             4.35067               3.0675       
        20.83314             4.43344               3.2922       
        22.27063             4.53124               3.5274       
        23.8073              4.64533               3.7723       
        25.45001             4.77694               4.0266       
        27.20606             4.92734               4.2894       
        29.08327             5.09779               4.5603       
        31.09002             5.28966               4.8385       
        33.23523             5.50445               5.1236       
        35.52846             5.74388               5.4151       
        37.97993             6.01002               5.7127       
        40.60054             6.30538               6.0162       
        43.40198             6.67459               6.3044       
        46.39671             7.06312               6.5733       
        49.59809             7.46141               6.8347       
        53.02035             7.85964               7.0873       
        56.67876             8.12459               7.1365       
         58.31               7.95238               7.0944       
        59.2025              7.32491               7.0696       
        59.4405              6.41648               7.0627       
        59.7975              7.50344               8.9241       
        60.58959             8.46511               8.8069       
         60.69               8.53783               8.7924       
        64.77028             9.99361               8.2619       
        69.23942               10.7                7.8176       
        74.01695             11.1971               7.4801       
        79.12411             11.6018               7.1971       
        84.58368             11.9426               6.9439       
        90.41995             12.2207               6.7099       
        96.65893             12.3949               6.4907       
         98.686              12.3849               6.4253       
        100.1965             12.2528               6.3784       
        100.5993             12.0449               6.3661       
        101.2035             12.2888               6.7844       
        102.714              12.5366               6.7462       
        103.3284             12.5962               6.7311       
        110.4581             13.0306               6.5708       
        118.0797             13.3567               6.4252       
        126.2272             13.6488               6.2918       
        134.9368             13.9231               6.1699       
        144.2475             14.1876               6.0579       
        154.2005             14.4472               5.9535       
        164.8404             14.7051               5.8536       
        176.2144             14.9632               5.7547       
        188.3732             15.2277               5.6531       
        201.3709              15.486               5.5455       
        215.2655             15.7421               5.4288       
        230.1188             15.9934               5.3009       
        245.997              16.2372               5.1597       
        262.9708             16.4686               5.0016       
        281.1158              16.681               4.8271       
        300.5128             16.8691               4.6386       
        321.2482             17.0277               4.4388       
        343.4143             17.1536               4.2307       
        367.1099             17.2425               4.0175       
        392.4405              17.29                3.8022       
        419.5189             17.2911               3.5873       
        448.4657             17.2394               3.3752       
        479.4098             17.1251               3.1678       
        512.4891             16.9341               2.9667       
        547.8508             16.6433               2.7733       
        585.6525             16.2138               2.5884       
        626.0625             15.5717               2.4125       
        669.2609             14.5571               2.2461       
        715.4399             12.7139               2.0893       
        763.028              7.65825               1.9469       
        764.8052             7.22164               1.9419       
        774.707              2.81236               1.9146       
        777.728              -2.10962              1.9064       
        777.8214             -2.47515              1.9061       
        782.493              2.28899               11.809       
        789.632               4.2024               11.644       
        792.8064             2.56916               11.572       
        794.172              2.39355               16.482       
        797.568              6.16476               16.372       
        809.472              10.1298               15.995       
        817.5768             11.6331               15.747       
        873.9896             16.5757               14.185       
        907.088              17.6437               13.401       
        920.972              17.4222               13.097       
        924.6744             16.6663               13.018       
        930.228              17.7529               14.641       
        934.2948             18.2397               14.556       
        944.112              18.9734               14.357       
        998.7612             21.1535               13.34        
        1067.676             22.7846               12.182       
        1141.345             23.9382               11.109       
        1220.098             24.8005               10.116       
        1304.285             25.4732               9.2078       
        1394.281             25.9977               8.3151       
        1490.486             26.3628               7.4892       
        1593.329             26.6227               6.7415       
        1703.269             26.7981               6.0602       
        1820.795             26.9098               5.448        
        1946.43              26.9744               4.8978       
        2080.733             27.0031               4.4033       
        2224.304             27.0049               3.9603       
        2377.781             26.9898               3.5635       
        2541.848             26.9602               3.2082       
        2717.235             26.9203               2.8901       
        2904.724             26.8771               2.6054       
        3105.15              26.8376               2.3362       
        3319.406             26.7746               2.0714       
        3548.445             26.6954               1.837        
        3793.288             26.6078               1.6283       
        4055.024             26.5107               1.4403       
        4334.821             26.4054               1.2751       
        4633.924             26.2922                1.13        
        4953.664             26.1697               1.0023       
        5295.467             26.0338              0.88996       
        5660.855             25.8774              0.79093       
        6051.453             25.6869               0.7036       
        6469.004             25.4337              0.62651       
        6915.365              25.044              0.55839       
        7392.525             24.1983              0.49816       
        7554.722             23.4922               0.4801       
        7670.355             22.0515              0.46787       
        7701.191             20.3118               0.4647       
        7747.444             22.0899               3.8913       
        7863.078              23.698               3.7792       
        7902.609             23.9681               3.742        
        8447.89              25.5247               3.3364       
        9030.794             26.1889               3.0147       
        9653.919             26.5956               2.7028       
        10320.04             26.8641               2.4149       
        11032.12             27.0436               2.1541       
        11793.34             27.1663               1.9216       
        12607.08             27.2503               1.7145       
        13476.97             27.3072               1.5298       
        14406.88             27.3449               1.3652       
        15400.95             27.3695               1.2182       
        16463.62             27.4194               1.0783       
        17599.61             27.4188              0.95438       
        18813.98             27.4105              0.84426       
        20112.15             27.3973               0.7469       
        21499.88             27.3808              0.66081       
        22983.38             27.3623              0.58469       
        24569.23              27.343              0.51737       
        26264.5              27.3241              0.45783       
        28076.76             27.3053              0.40326       
        30014.05             27.2853              0.35466       
        32085.02             27.2654              0.31194       
        34298.89             27.2463              0.27377       
        36665.51             27.2274              0.23948       
        39195.43             27.2091               0.2095       
        41899.92             27.1916              0.18327       
        44791.01             27.1751              0.16034       
        47881.59             27.1597              0.14027       
        51185.42             27.1453              0.12271       
        54717.21              27.132              0.10735       
        58492.7              27.1198              0.09392       
        62528.7              27.1086              0.082171      
        66843.18             27.0983              0.071894      
        71455.36             27.0889              0.062904      
        76385.78             27.0803              0.05504       
        81656.4              27.0725              0.048079      
        87290.69             27.0655              0.041842      
        93313.74              27.059              0.036414      
        99752.39              27.053              0.031691      
        106635.3             27.0476              0.027581      
        113993.1             27.0427              0.024005      
        121858.7             27.0383              0.020892      
        130266.9             27.0343              0.018184      
        139255.3             27.0307              0.015826      
        148864.0             27.0275              0.013775      
        159135.6             27.0246              0.01199       
        170115.9             27.0219              0.010436      
        181853.9             27.0196             0.0090837      
        194401.8             27.0175             0.0079067      
        207815.6             27.0156             0.0068823      
        222154.8             27.0139             0.0059908      
        237483.5             27.0124             0.0052147      
        253869.9              27.011             0.0045393      
        271386.9             27.0098             0.0039514      
        290112.6             27.0087             0.0034396      
        310130.4             27.0078             0.0029942      
        331529.4             27.0069             0.0026065      
        354404.9             27.0061              0.002269      
        378858.8             27.0055             0.0019752      
        405000.1             27.0049             0.0017195      
        432945.1             27.0043             0.0014969      
