# Cr
# Form Factors from Chantler Tables
# DOI: https://dx.doi.org/10.18434/T4HS32
# automatically retrived 2019-02-27 using URL https://physics.nist.gov/cgi-bin/ffast/ffast.pl
#
# Z = 24
# f_rel = -0.089603 e/atom  (Relativistic correction estimate)
# f_NT = -0.006077 e/atom (Nuclear Thomson correction)


#        E (eV)            f1 (e/atom)          f2 (e/atom)     
         10.69               4.91074               2.0464       
        11.42761             4.96917               2.1522       
        12.21612             5.03413               2.2639       
        13.05903             5.10636               2.381        
        13.9601              5.18659               2.5029       
        14.92335             5.27545               2.629        
        15.95306             5.37345               2.7586       
        17.05382              5.481                2.8907       
        18.23053             5.59831               3.0245       
        19.48844             5.72538               3.1589       
        20.83314             5.86196               3.2927       
        22.27063             6.00743               3.4249       
        23.8073              6.16072               3.5542       
        25.45001             6.32013               3.6795       
        27.20606             6.48301               3.7997       
        29.08327             6.64508               3.9138       
        31.09002             6.79915               4.0208       
        33.23523             6.93175               4.1198       
        35.52846             7.01362               4.2103       
        37.97993             6.96365               4.2917       
        40.60054             6.40477               4.3636       
         41.65               5.50583               4.3886       
        42.2875              3.43782               4.4027       
        42.4575              0.622173              4.4064       
        42.7125              4.05524               10.114       
         43.35               7.09375               9.4318       
        43.40198              7.2268               9.3778       
        46.39671             10.0687               7.0694       
        49.59809             10.5444               5.8022       
        53.02035              10.676               5.1298       
        56.67876             10.7528               4.7082       
        60.58959              10.815               4.4061       
        64.77028             10.8599               4.1693       
        69.23942             10.8662               3.9739       
         72.618              10.7857               3.8536       
        73.7295              10.6519               3.8182       
        74.01695             10.4986               3.8093       
        74.0259              10.4869               3.809        
        74.4705              10.6552               4.1232       
         75.582              10.8074               4.0982       
        79.12411             10.9676               4.0301       
        84.58368             11.1006               3.9538       
        90.41995             11.2096               3.8999       
        96.65893             11.3121               3.8667       
        103.3284              11.416               3.8526       
        110.4581             11.5266               3.8554       
        118.0797             11.6482               3.8716       
        126.2272              11.784               3.897        
        134.9368             11.9285               3.9264       
        144.2475             12.0966               3.9543       
        154.2005             12.2801               3.9752       
        164.8404             12.4764               3.9841       
        176.2144             12.6825               3.9761       
        188.3732              12.892               3.9445       
        201.3709             13.0964               3.888        
        215.2655             13.2879               3.8071       
        230.1188             13.4608               3.7041       
        245.997              13.6061               3.5818       
        262.9708             13.7191               3.444        
        281.1158             13.7945               3.2943       
        300.5128             13.8264               3.1366       
        321.2482             13.8083               2.974        
        343.4143             13.7312               2.8096       
        367.1099             13.5829               2.6461       
        392.4405             13.3444               2.4855       
        419.5189             12.9845               2.3296       
        448.4657             12.4471               2.1795       
        479.4098              11.619               2.036        
        512.4891             10.2203               1.8997       
        547.8508             7.17813               1.7709       
         563.01              4.03264               1.7204       
        572.026              -1.46698              1.6915       
        573.9255             -6.34058              1.6856       
        577.3725             -1.66698              11.688       
        580.7815            -0.233901              11.587       
        583.1163             -1.67326              11.518       
        585.6525             1.18309               16.406       
         585.99              1.54437               16.392       
        586.6185             2.12272               16.365       
        595.374              6.31539               16.009       
        626.0625              11.672               14.855       
        669.2609             14.5819               13.462       
        680.708              14.8744               13.133       
        691.127               14.621               12.846       
        693.9054             13.8694               12.771       
        698.073              14.9312               14.371       
        708.492              16.1104               14.093       
        715.4399             16.5908               13.914       
        764.8052             18.7137               12.748       
        817.5768             20.0955               11.672       
        873.9896             21.1147               10.67        
        934.2948               21.9                9.7452       
        998.7612             22.5466               8.8912       
        1067.676             23.0148               8.0226       
        1141.345              23.347               7.2353       
        1220.098              23.587               6.5161       
        1304.285             23.7474               5.8615       
        1394.281             23.8492               5.2721       
        1490.486             23.9066               4.7405       
        1593.329             23.9301               4.263        
        1703.269              23.928               3.8344       
        1820.795             23.9099               3.4502       
        1946.43              23.8752               3.1057       
        2080.733             23.8307               2.7971       
        2224.304             23.7813               2.5207       
        2377.781             23.7276               2.2658       
        2541.848             23.6639               2.0299       
        2717.235             23.5939               1.8208       
        2904.724             23.5212               1.6307       
        3105.15              23.4551               1.4474       
        3319.406             23.3672               1.2756       
        3548.445             23.2625               1.1254       
        3793.288             23.1453               0.9938       
        4055.024             23.0137              0.87851       
        4334.821             22.8622              0.77738       
        4633.924              22.679               0.6886       
        4953.664              22.44               0.61057       
        5295.467             22.0858              0.54194       
        5660.855             21.3981              0.48151       
        5869.416             20.4015               0.4518       
        5959.254             18.9371              0.43991       
        5983.211             17.1703              0.43683       
        6019.146             18.9719               3.9165       
        6051.453             19.8252               3.8773       
        6108.984             20.6031               3.8091       
        6469.004             22.2661               3.4413       
        6915.365             23.0221               3.0935       
        7392.525             23.4637               2.7898       
        7902.609             23.7651               2.5128       
        8447.89              23.9746               2.2524       
        9030.794             24.1269               2.0153       
        9653.919              24.227               1.7961       
        10320.04             24.2944               1.6008       
        11032.12             24.3392               1.4269       
        11793.34             24.3684               1.2717       
        12607.08             24.4243               1.1261       
        13476.97             24.4264              0.99494       
        14406.88             24.4195              0.87882       
        15400.95             24.4067              0.77631       
        16463.62             24.3901               0.6858       
        17599.61             24.3712              0.60588       
        18813.98             24.3509              0.53531       
        20112.15             24.3301              0.47298       
        21499.88             24.3093              0.41793       
        22983.38             24.2889              0.36931       
        24569.23             24.2694              0.32636       
        26264.5              24.2512              0.28815       
        28076.76             24.2333              0.25208       
        30014.05             24.2153              0.22018       
        32085.02             24.1978              0.19232       
        34298.89              24.181              0.16799       
        36665.51             24.1653              0.14673       
        39195.43             24.1506              0.12816       
        41899.92             24.1369              0.11195       
        44791.01             24.1242              0.097787      
        47881.59             24.1125              0.085421      
        51185.42             24.1018              0.074621      
        54717.21              24.092              0.065188      
        58492.7              24.0831              0.056949      
        62528.7               24.075              0.049753      
        66843.18             24.0676              0.043467      
        71455.36             24.0609              0.037976      
        76385.78             24.0549              0.033179      
        81656.4              24.0495              0.028939      
        87290.69             24.0444              0.025144      
        93313.74             24.0399              0.021847      
        99752.39             24.0357              0.018983      
        106635.3              24.032              0.016494      
        113993.1             24.0286              0.014332      
        121858.7             24.0256              0.012453      
        130266.9             24.0229              0.010821      
        139255.3             24.0204              0.009403      
        148864.0             24.0182             0.0081708      
        159135.6             24.0162             0.0071002      
        170115.9             24.0145             0.0061699      
        181853.9             24.0129             0.0053615      
        194401.8             24.0115             0.0046591      
        207815.6             24.0102             0.0040488      
        222154.8             24.0091             0.0035185      
        237483.5             24.0081             0.0030576      
        253869.9             24.0072             0.0026571      
        271386.9             24.0064             0.0023091      
        290112.6             24.0057             0.0020067      
        310130.4              24.005             0.0017439      
        331529.4             24.0045             0.0015156      
        354404.9              24.004             0.0013171      
        378858.8             24.0035             0.0011447      
        405000.1             24.0031             0.0009948      
        432945.1             24.0028             0.00086456     
