# F
# Form Factors from Chantler Tables
# DOI: https://dx.doi.org/10.18434/T4HS32
# automatically retrived 2019-02-27 using URL https://physics.nist.gov/cgi-bin/ffast/ffast.pl
#
# Z = 9
# f_rel = -0.0099395 e/atom  (Relativistic correction estimate)
# f_NT = -0.0023389 e/atom (Nuclear Thomson correction)


#        E (eV)            f1 (e/atom)          f2 (e/atom)     
         8.428               -2.53843               0.0         
         8.557               -3.50839               0.0         
         8.5914              -4.60765               0.0         
         8.643               -3.54459               2.13        
         8.772               -2.64402              2.1646       
         10.69               -1.03438              2.6472       
        11.42761            -0.785561              2.7969       
        12.21612            -0.555727              2.938        
        13.05903            -0.335163              3.071        
        13.9601             -0.118924              3.1962       
        14.92335            0.0958117              3.3139       
        15.95306             0.310798              3.4245       
        17.05382             0.527186              3.528        
        18.23053             0.745735              3.6244       
        19.48844             0.966891              3.7134       
        20.83314             1.19079               3.7948       
        22.27063             1.41722               3.8678       
        23.8073              1.64545               3.932        
        25.45001             1.87395               3.9866       
        27.20606               2.1                 4.0307       
        29.08327             2.31315               4.0636       
         30.38               2.42332               4.0786       
         30.845              2.42239               4.0826       
         30.969              2.37534               4.0835       
        31.09002             2.42622               4.2017       
         31.155              2.45285               4.2031       
         31.62               2.55277               4.2127       
        33.23523             2.77327               4.2434       
        35.52846             3.04456               4.2797       
        37.97993             3.31742               4.3029       
        40.60054             3.59298               4.3112       
        43.40198             3.87021               4.3036       
        46.39671             4.14747               4.2796       
        49.59809             4.42281               4.2389       
        53.02035              4.6941               4.1815       
        56.67876             4.95919               4.1078       
        60.58959             5.21598               4.0186       
        64.77028             5.46254               3.915        
        69.23942             5.69718               3.7985       
        74.01695             5.91853               3.6708       
        79.12411             6.12552               3.5338       
        84.58368             6.31749               3.3894       
        90.41995             6.49407               3.2395       
        96.65893              6.6551               3.086        
        103.3284             6.80118               2.9308       
        110.4581             6.93272               2.7755       
        118.0797             7.05053               2.6214       
        126.2272              7.1557               2.4699       
        134.9368             7.24938               2.3217       
        144.2475             7.33266               2.1774       
        154.2005             7.40712               2.038        
        164.8404             7.47445               1.8939       
        176.2144             7.52489               1.7353       
        188.3732             7.55803               1.587        
        201.3709             7.57744               1.449        
        215.2655             7.58557               1.3211       
        230.1188              7.5842               1.2031       
        245.997              7.57462               1.0944       
        262.9708             7.55776              0.99472       
        281.1158              7.5342              0.90347       
        300.5128             7.50422              0.82014       
        321.2482             7.46776              0.74419       
        343.4143             7.42436              0.67509       
        367.1099             7.37312              0.61229       
        392.4405             7.31248              0.55531       
        419.5189               7.24               0.50364       
        448.4657             7.15184              0.45684       
        479.4098             7.04174              0.41448       
        512.4891              6.8991              0.37614       
        547.8508              6.704               0.34148       
        585.6525             6.41337              0.30993       
        626.0625             5.90422              0.27941       
        669.2609             4.46336              0.25176       
        671.692              4.27069              0.25034       
        681.973              2.57294              0.24446       
        684.7146             0.52979              0.24292       
        688.827              2.66519               4.2681       
        699.108              4.54067               4.1803       
        715.4399             5.64407               4.0471       
        764.8052              7.044                3.6853       
        817.5768             7.76036               3.3518       
        873.9896             8.22518               3.0432       
        934.2948             8.55284               2.7592       
        998.7612             8.79468               2.4992       
        1067.676             8.97744               2.2538       
        1141.345             9.11455               2.0306       
        1220.098             9.21735               1.8172       
        1304.285             9.28588               1.6221       
        1394.281             9.33097               1.4469       
        1490.486             9.35888               1.2898       
        1593.329             9.37393               1.1491       
        1703.269             9.37936               1.0233       
        1820.795             9.37762              0.91083       
        1946.43              9.37061               0.8105       
        2080.733             9.36013              0.72104       
        2224.304             9.34689              0.64132       
        2377.781             9.33207              0.57033       
        2541.848             9.31652              0.50714       
        2717.235             9.30109              0.45093       
        2904.724             9.28588              0.39862       
        3105.15              9.26977              0.35055       
        3319.406             9.25188              0.30702       
        3548.445             9.23378              0.26891       
        3793.288             9.21598              0.23553       
        4055.024             9.19881              0.20629       
        4334.821             9.18245              0.18068       
        4633.924              9.167               0.15825       
        4953.664             9.15253              0.13861       
        5295.467             9.13905              0.12141       
        5660.855             9.12654              0.10634       
        6051.453              9.115               0.093147      
        6469.004             9.10438              0.08159       
        6915.365             9.09464              0.071467      
        7392.525             9.08575              0.062601      
        7902.609             9.07766              0.054836      
        8447.89              9.07041              0.048034      
        9030.794             9.06412              0.041998      
        9653.919             9.05787              0.036478      
        10320.04             9.05214              0.031684      
        11032.12             9.04693              0.02752       
        11793.34             9.04219              0.023903      
        12607.08              9.0379              0.020762      
        13476.97             9.03403              0.01798       
        14406.88              9.0305              0.015549      
        15400.95             9.02731              0.013445      
        16463.62             9.02442              0.011626      
        17599.61             9.02183              0.010053      
        18813.98             9.01949             0.0086933      
        20112.15             9.01739             0.0075172      
        21499.88             9.01551             0.0065003      
        22983.38             9.01382              0.005621      
        24569.23             9.01231             0.0048606      
        26264.5              9.01096             0.0042031      
        28076.76             9.00976             0.0036202      
        30014.05             9.00868             0.0031141      
        32085.02             9.00772             0.0026787      
        34298.89             9.00685             0.0023042      
        36665.51             9.00608             0.0019821      
        39195.43             9.00539              0.001705      
        41899.92             9.00478             0.0014667      
        44791.01             9.00424             0.0012616      
        47881.59             9.00375             0.0010853      
        51185.42             9.00332             0.00093356     
        54717.21             9.00294             0.00080306     
        58492.7               9.0026             0.00069081     
        62528.7               9.0023             0.00059424     
        66843.18             9.00204             0.00051118     
        71455.36              9.0018             0.00043973     
        76385.78             9.00159             0.00037826     
        81656.4               9.0014             0.00032542     
        87290.69             9.00124             0.00028001     
        93313.74              9.0011             0.00024094     
        99752.39             9.00097             0.00020732     
        106635.3             9.00085             0.00017839     
        113993.1             9.00075             0.0001535      
        121858.7             9.00066             0.00013208     
        130266.9             9.00059             0.00011365     
        139255.3             9.00052             9.7791e-05     
        148864.0             9.00046             8.4146e-05     
        159135.6              9.0004             7.2405e-05     
        170115.9             9.00035             6.2302e-05     
        181853.9             9.00031             5.3609e-05     
        194401.8             9.00027             4.6129e-05     
        207815.6             9.00024             3.9693e-05     
        222154.8             9.00021             3.4155e-05     
        237483.5             9.00019             2.9389e-05     
        253869.9             9.00017             2.5289e-05     
        271386.9             9.00015             2.176e-05      
        290112.6             9.00013             1.8724e-05     
        310130.4             9.00011             1.6112e-05     
        331529.4              9.0001             1.3864e-05     
        354404.9             9.00009             1.193e-05      
        378858.8             9.00008             1.0265e-05     
        405000.1             9.00007             8.8331e-06     
        432945.1             9.00006             7.6007e-06     
