# Fe
# Form Factors from Chantler Tables
# DOI: https://dx.doi.org/10.18434/T4HS32
# automatically retrived 2019-02-27 using URL https://physics.nist.gov/cgi-bin/ffast/ffast.pl
#
# Z = 26
# f_rel = -0.10812 e/atom  (Relativistic correction estimate)
# f_NT = -0.0066403 e/atom (Nuclear Thomson correction)


#        E (eV)            f1 (e/atom)          f2 (e/atom)     
         10.69               4.40382               1.424        
        11.42761             4.40661               1.5363       
        12.21612             4.41481               1.6592       
        13.05903             4.42757               1.7931       
        13.9601              4.44647               1.9386       
        14.92335              4.4736               2.096        
        15.95306             4.51048               2.2636       
        17.05382             4.55792               2.441        
        18.23053             4.61691               2.6278       
        19.48844              4.6885               2.8235       
        20.83314              4.7737               3.0272       
        22.27063             4.87349               3.2383       
        23.8073              4.98874               3.4557       
        25.45001             5.12026               3.6787       
        27.20606             5.26878               3.9061       
        29.08327             5.43505               4.137        
        31.09002             5.61986               4.3705       
        33.23523              5.8282               4.599        
        35.52846             6.05409               4.8169       
        37.97993             6.29071               5.0275       
        40.60054             6.53388               5.2288       
        43.40198             6.77456               5.4191       
        46.39671             6.99243               5.5969       
        49.59809             7.12657               5.7609       
         52.92               6.78937               5.906        
        53.02035             6.74584               5.9101       
         53.73               6.05634               5.9379       
         53.946              5.04941               5.9462       
         54.27               6.23005               8.0096       
         55.08               7.32766               7.9125       
        56.67876             8.17043               7.7445       
        60.58959              9.1286               7.4424       
        64.77028             9.72729               7.3003       
        69.23942             10.2742               7.1586       
        74.01695             10.7404               6.8831       
        79.12411             11.1204               6.6327       
        84.58368             11.4192               6.3988       
        90.41995             11.5747               6.1785       
         91.042              11.5657               6.1566       
        92.4355               11.443               6.1086       
        92.8071              11.2427               6.0961       
        93.3645              11.4812               6.5009       
         94.758               11.726               6.4618       
        96.65893             11.8998               6.4106       
        103.3284             12.2954               6.2493       
        110.4581             12.6117               6.1022       
        118.0797             12.8952               5.9677       
        126.2272             13.1595               5.8454       
        134.9368             13.4126               5.7339       
        144.2475             13.6595               5.6308       
        154.2005             13.9037               5.533        
        164.8404             14.1496               5.4371       
        176.2144             14.3931               5.3394       
        188.3732             14.6359               5.2365       
        201.3709             14.8762               5.1252       
        215.2655             15.1118               5.0034       
        230.1188             15.3398               4.8675       
        245.997              15.5539               4.7151       
        262.9708             15.7483               4.5474       
        281.1158             15.9181               4.3664       
        300.5128             16.0582               4.175        
        321.2482             16.1644               3.976        
        343.4143             16.2326               3.7724       
        367.1099             16.2582               3.567        
        392.4405             16.2355               3.3624       
        419.5189             16.1566               3.1607       
        448.4657             16.0101               2.9637       
        479.4098             15.7788               2.773        
        512.4891              15.434               2.5897       
        547.8508             14.9253               2.4147       
        585.6525             14.1528               2.2486       
        626.0625             12.8786               2.0915       
        669.2609              10.271               1.9436       
        693.938              6.60633               1.8672       
        704.5595             1.76776               1.8359       
        706.678              -1.24454              1.8298       
        707.3919             -3.49355              1.8277       
        711.6405             1.19707               11.657       
        715.4399             2.82538               11.565       
        717.4945             2.96615               11.515       
        720.3789             1.39388               11.447       
        722.262              2.65657               16.292       
        724.7055             4.99594               16.209       
        735.522              8.97159               15.852       
        764.8052             13.3092               14.949       
        817.5768             16.4542               13.531       
        829.178              16.7052               13.253       
        841.8695             16.4524               12.96        
        845.2539             15.6692               12.883       
        850.3305             16.7842               14.559       
        863.022              18.0245               14.272       
        873.9896             18.6609               14.032       
        934.2948             20.8209               12.835       
        998.7612             22.2293               11.74        
        1067.676             23.2714               10.687       
        1141.345             24.0488               9.7229       
        1220.098             24.6633               8.8309       
        1304.285             25.1128               7.9627       
        1394.281             25.4331               7.1798       
        1490.486             25.6643               6.4637       
        1593.329              25.817               5.8123       
        1703.269             25.9124               5.2261       
        1820.795             25.9647               4.6982       
        1946.43               25.984               4.2238       
        2080.733             25.9787               3.7984       
        2224.304             25.9575               3.4173       
        2377.781             25.9217               3.076        
        2541.848             25.8778               2.7704       
        2717.235             25.8293               2.4969       
        2904.724             25.7812               2.2482       
        3105.15              25.7281               2.0033       
        3319.406             25.6539               1.7751       
        3548.445             25.5677               1.5695       
        3793.288             25.4704               1.387        
        4055.024             25.3646               1.2269       
        4334.821             25.2504               1.0864       
        4633.924             25.1258              0.96283       
        4953.664             24.9864              0.85419       
        5295.467             24.8241              0.75854       
        5660.855             24.6232              0.67426       
        6051.453             24.3495              0.59992       
        6469.004             23.9082               0.5343       
        6915.365              22.789              0.47631       
        6969.76              22.4649              0.46996       
        7076.44              21.0168               0.4579       
        7104.888             19.2682              0.45477       
        7147.56              21.0548               3.8992       
        7254.24              22.6714               3.7877       
        7392.525             23.4808               3.6502       
        7902.609              24.683               3.265        
        8447.89              25.2655               2.9475       
        9030.794             25.6451               2.6546       
        9653.919             25.8973               2.3704       
        10320.04              26.066               2.1145       
        11032.12             26.1815               1.8865       
        11793.34             26.2607               1.6832       
        12607.08             26.3142               1.502        
        13476.97             26.3498               1.3404       
        14406.88             26.4121               1.194        
        15400.95             26.4211               1.0562       
        16463.62             26.4188              0.93409       
        17599.61             26.4094              0.82587       
        18813.98             26.3951              0.73023       
        20112.15             26.3778              0.64572       
        21499.88             26.3587              0.57102       
        22983.38             26.3387               0.505        
        24569.23             26.3183              0.44663       
        26264.5              26.2983              0.39503       
        28076.76             26.2809              0.34777       
        30014.05             26.2618              0.30571       
        32085.02              26.243              0.26786       
        34298.89             26.2243               0.2342       
        36665.51             26.2062              0.20478       
        39195.43             26.1889              0.17906       
        41899.92             26.1725              0.15658       
        44791.01             26.1573              0.13691       
        47881.59             26.1431              0.11972       
        51185.42              26.13               0.10469       
        54717.21             26.1179              0.09155       
        58492.7              26.1068              0.080062      
        62528.7              26.0966              0.070017      
        66843.18             26.0873              0.061234      
        71455.36             26.0789              0.053554      
        76385.78             26.0712              0.046838      
        81656.4              26.0643              0.040894      
        87290.69             26.0579              0.035564      
        93313.74             26.0521              0.03093       
        99752.39             26.0468               0.0269       
        106635.3              26.042              0.023395      
        113993.1             26.0376              0.020347      
        121858.7             26.0337              0.017697      
        130266.9             26.0302              0.015392      
        139255.3              26.027              0.013387      
        148864.0             26.0241              0.011644      
        159135.6             26.0215              0.010128      
        170115.9             26.0192             0.0088094      
        181853.9             26.0171             0.0076625      
        194401.8             26.0153              0.006665      
        207815.6             26.0136             0.0057975      
        222154.8             26.0121             0.0050429      
        237483.5             26.0108             0.0043866      
        253869.9             26.0096             0.0038158      
        271386.9             26.0086             0.0033192      
        290112.6             26.0076             0.0028873      
        310130.4             26.0068             0.0025117      
        331529.4              26.006             0.0021849      
        354404.9             26.0053             0.0019006      
        378858.8             26.0047             0.0016534      
        405000.1             26.0042             0.0014383      
        432945.1             26.0037             0.0012512      
