# I
# Form Factors from Chantler Tables
# DOI: https://dx.doi.org/10.18434/T4HS32
# automatically retrived 2019-02-28 using URL https://physics.nist.gov/cgi-bin/ffast/ffast.pl

# For f_rel the second term, which is 3/5th of the Cromer-Liberman value, is used as suggested by Chantler.
# Real and imaginary part of the formfactors are: f'(E)=f1(E)+f_rel+f_NT and f''(E)=f2(E)
# see also original publication:  https://doi.org/10.1063/1.555974

# Z = 53
# f_rel = -0.3786 e/atom  (Relativistic correction estimate)
# f_NT = -0.012143 e/atom (Nuclear Thomson correction)


#        E (eV)            f1 (e/atom)          f2 (e/atom)     
         10.69               11.8518                0.0         
        11.42761             11.8252                0.0         
        12.21612             11.7946                0.0         
        13.05903             11.7594                0.0         
        13.9601              11.7188                0.0         
        14.92335             11.6719                0.0         
        15.95306             11.6177                0.0         
        17.05382             11.5549                0.0         
        18.23053             11.4821                0.0         
        19.48844             11.3973                0.0         
        20.83314             11.2983                0.0         
        22.27063             11.1823                0.0         
        23.8073               11.046                0.0         
        25.45001             10.8849                0.0         
        27.20606             10.6935                0.0         
        29.08327             10.4643                0.0         
        31.09002             10.1874                0.0         
        33.23523             9.84922                0.0         
        35.52846             9.43029                0.0         
        37.97993             8.90135                0.0         
        40.60054              8.2157                0.0         
        43.40198             7.29092                0.0         
        46.39671             5.95148                0.0         
         48.608              4.48414                0.0         
         49.352              3.67328                0.0         
        49.59809             2.55839                0.0         
         49.848              3.20612              0.62754       
         50.592              2.78632              0.81817       
        53.02035             0.605141              1.8942       
        56.67876             -2.9799               5.861        
        60.58959             -4.41342              12.865       
        64.77028             -1.57643              20.756       
        69.23942             5.22924               26.34        
        74.01695             13.5284               27.841       
        79.12411             20.7455               25.717       
        84.58368             25.6007               21.603       
        90.41995             28.0894               17.05        
        96.65893             28.8251               12.982       
        103.3284             28.4904               9.7369       
        110.4581             27.5842               7.3115       
        118.0797             26.3152               5.5642       
        120.246               25.839               5.1835       
        122.0865              25.155               4.8922       
        122.5773             24.5579               4.8191       
        123.3135             25.0124               5.7654       
        125.154              25.2665               5.5146       
        126.2272             25.2677               5.3788       
        134.9368             24.7795               4.5057       
        144.2475             24.1393               3.9032       
        154.2005             23.5207                3.5         
        164.8404             22.9449               3.2395       
        176.2144             22.3849               3.0832       
        182.672              22.0302               3.0324       
        185.468              21.7663               3.017        
        186.2136             21.5453               3.0134       
        187.332              21.7026               3.3918       
        188.3732             21.7597               3.3898       
        190.128              21.7817               3.3874       
        201.3709             21.6355               3.3965       
        215.2655             21.3975               3.4508       
        230.1188             21.1701               3.5381       
        245.997               20.959               3.6501       
        262.9708             20.7604                3.78        
        281.1158             20.5671               3.9218       
        300.5128             20.3694               4.0698       
        321.2482             20.1545               4.2182       
        343.4143              19.905               4.3612       
        367.1099             19.5966               4.493        
        392.4405             19.1892               4.608        
        419.5189             18.6426               4.7012       
        448.4657             17.8709               4.7685       
        479.4098             16.7376               4.8069       
        512.4891             14.9816               4.8143       
        547.8508             11.9899               4.7894       
        585.6525             5.63492               4.7339       
        607.012              -3.38493              4.6924       
        616.303              -15.3534              4.6724       
        618.674              -26.9803              4.6672       
        618.7806             -28.2232              4.667        
        622.497              -16.9818              28.524       
        626.0625             -13.2224              28.226       
        628.1435             -13.4083              28.054       
        630.6687             -19.2036              27.848       
        631.788              -19.5875              43.524       
        634.4565             -8.36804              43.172       
        643.926              3.18632               41.956       
        669.2609              15.334               38.956       
        715.4399             24.5449               34.443       
        764.8052             29.1643               30.997       
        817.5768             31.7254               28.202       
        857.108              32.0836               26.462       
        870.227               30.943               25.931       
        873.9896             28.7963               25.783       
        878.973              31.2151               29.204       
        892.092              33.1591               28.702       
         911.89              34.3584               27.977       
        925.8475             34.4902               27.486       
        929.5695             33.9013               27.358       
        934.2948             34.8163               28.719       
        935.1525             34.9563               28.69        
         949.11              36.2578               28.218       
        998.7612             38.6538               26.646       
        1050.658             40.1104               25.11        
        1067.676             40.0667               24.603       
        1071.028             39.6513                24.5        
        1077.461             40.4143               25.442       
        1093.542             41.3447               24.955       
        1141.345             42.8266                23.6        
        1220.098             44.3871               21.641       
        1304.285             45.5247               19.848       
        1394.281             46.3982               18.211       
        1490.486             47.0925               16.699       
        1593.329              47.621               15.264       
        1703.269              47.993               13.933       
        1820.795             48.2438               12.723       
        1946.43              48.4003               11.623       
        2080.733              48.489               10.626       
        2224.304             48.5412               9.7173       
        2377.781             48.5293               8.8857       
        2541.848              48.478               8.1102       
        2717.235             48.3604               7.3706       
        2904.724             48.2078               6.7093       
        3105.15               48.065               6.0553       
        3319.406             47.6838               5.424        
        3548.445             47.1716               4.8629       
        3793.288             46.4591               4.3446       
        4055.024             45.3714               3.8793       
        4334.821             43.2826               3.4694       
        4465.958             41.0615               3.3023       
        4534.314             37.7027               3.2206       
        4552.543             33.8351               3.1994       
        4579.885             37.6379               10.667       
        4633.924             40.4735               10.391       
        4648.242              40.836               10.32        
        4755.058             41.9574               9.8092       
        4827.839             41.0845               9.5109       
        4847.248             39.3389               9.4389       
        4876.36              41.4727               13.062       
        4953.664             43.6693               12.66        
        5084.338             44.9619               12.036       
        5162.159             44.8502               11.713       
        5182.912             44.0786               11.631       
        5214.04              45.2183               13.332       
        5295.467             46.5711               13.013       
        5660.855             49.0314               11.779       
        6051.453             50.4303               10.679       
        6469.004             51.3802               9.6346       
        6915.365             52.0355               8.6656       
        7392.525             52.4876               7.7844       
        7902.609             52.7994               6.9929       
        8447.89               53.015               6.2859       
        9030.794             53.1826               5.6458       
        9653.919             53.3587               5.0279       
        10320.04             53.4298               4.4712       
        11032.12             53.4524               3.9684       
        11793.34             53.4062               3.5241       
        12607.08             53.3387               3.1314       
        13476.97             53.2571               2.785        
        14406.88             53.1664               2.4792       
        15400.95             53.0697               2.209        
        16463.62             52.9691               1.9699       
        17599.61             52.8653               1.7569       
        18813.98             52.7582               1.5678       
        20112.15             52.6473               1.3991       
        21499.88             52.5289               1.2463       
        22983.38             52.3987               1.1086       
        24569.23             52.2486              0.98355       
        26264.5              52.0687              0.87336       
        28076.76              51.833              0.76881       
        30014.05             51.4549              0.67523       
        32085.02             50.5798              0.59354       
        32506.01              50.158              0.57883       
        33003.55             48.9195              0.56217       
        33136.23             47.4332              0.55785       
        33335.25             48.9383               3.4787       
        33832.79             50.2993               3.3951       
        34298.89             50.8358               3.3198       
        36665.51             51.9788               2.9745       
        39195.43              52.492               2.6643       
        41899.92             52.8009               2.3861       
        44791.01             53.0062               2.1326       
        47881.59             53.1422               1.9025       
        51185.42             53.2332               1.6966       
        54717.21             53.2932               1.5126       
        58492.7              53.3312               1.3483       
        62528.7              53.3535               1.2017       
        66843.18             53.3967               1.0706       
        71455.36             53.3976              0.95063       
        76385.78             53.3913              0.84419       
        81656.4              53.3819              0.74857       
        87290.69             53.3679              0.66149       
        93313.74              53.35                0.5846       
        99752.39             53.3303              0.51669       
        106635.3             53.3097               0.4567       
        113993.1             53.2891              0.40372       
        121858.7             53.2686               0.3569       
        130266.9             53.2488              0.31554       
        139255.3             53.2296               0.279        
        148864.0             53.2114              0.24674       
        159135.6             53.1942              0.21827       
        170115.9             53.1781              0.19309       
        181853.9              53.163              0.17083       
        194401.8             53.1489              0.15114       
        207815.6             53.1359              0.13373       
        222154.8             53.1238              0.11833       
        237483.5             53.1126              0.10472       
        253869.9             53.1024              0.09267       
        271386.9             53.0929              0.082014      
        290112.6             53.0843              0.072587      
        310130.4             53.0764              0.064247      
        331529.4             53.0692              0.056869      
        354404.9             53.0626              0.05034       
        378858.8             53.0566              0.044562      
        405000.1             53.0511              0.03945       
        432945.1             53.0461              0.034926      
