# K
# Form Factors from Chantler Tables
# DOI: https://dx.doi.org/10.18434/T4HS32
# automatically retrived 2019-02-27 using URL https://physics.nist.gov/cgi-bin/ffast/ffast.pl
#
# Z = 19
# f_rel = -0.052204 e/atom  (Relativistic correction estimate)
# f_NT = -0.0050651 e/atom (Nuclear Thomson correction)


#        E (eV)            f1 (e/atom)          f2 (e/atom)     
         10.69               1.03631                0.0         
        11.42761             0.667451               0.0         
        12.21612             0.182018               0.0         
        13.05903            -0.481008               0.0         
        13.9601              -1.43652               0.0         
        14.92335             -2.93411               0.0         
        15.95306             -5.66247               0.0         
        17.05382             -12.849                0.0         
         17.444              -20.1638               0.0         
         17.711              -36.4057               0.0         
        17.7822              -57.575                0.0         
         17.889              -32.766               42.47        
         18.156              -10.9873              38.222       
        18.23053             -7.96761              37.125       
        19.48844             10.5085               23.098       
        20.83314             13.6677               14.677       
        22.27063              13.72                9.7862       
        23.8073              13.0032               6.8296       
        25.45001              12.158               4.9747       
        27.20606             11.3733               3.7714       
        29.08327             10.6944               2.9673       
        31.09002             10.1175               2.4161       
        33.23523             9.61001               2.0302       
        33.7305              9.48312               1.9611       
        33.8661              9.42106               1.9433       
        34.0695              9.41824               1.989        
         34.578              9.35849               1.9326       
        35.52846              9.2233               1.8414       
        37.97993             8.91334               1.6722       
        40.60054             8.65576               1.5627       
        43.40198             8.44571               1.4956       
        46.39671             8.27664               1.4595       
        49.59809             8.14269               1.446        
        53.02035             8.03876               1.4489       
        56.67876             7.96076               1.4635       
        60.58959             7.90418               1.4861       
        64.77028             7.86604               1.5142       
        69.23942             7.84348               1.5456       
        74.01695             7.83414               1.5786       
        79.12411             7.83561               1.6112       
        84.58368             7.84534               1.642        
        90.41995             7.86087                1.67        
        96.65893             7.87971               1.6941       
        103.3284             7.89855               1.7137       
        110.4581             7.91598               1.7279       
        118.0797             7.92812               1.7363       
        126.2272             7.93138               1.7384       
        134.9368             7.92155               1.734        
        144.2475             7.89362               1.7229       
        154.2005             7.84127               1.705        
        164.8404              7.7565               1.6805       
        176.2144             7.62874                1.65        
        188.3732             7.44332               1.6139       
        201.3709             7.17851               1.5729       
        215.2655              6.7998               1.5275       
        230.1188             6.24684               1.4787       
        245.997              5.39894               1.427        
        262.9708             3.95518               1.3732       
        281.1158             0.705984              1.3181       
        287.728              -2.13949              1.2987       
        290.374              -4.36755              1.291        
        292.132              -7.17401              1.2859       
        293.3064             -12.4621              1.2826       
        294.8185             -9.07883              10.759       
        295.068              -8.77353              10.75        
        296.0037             -9.3545               10.716       
        297.7815             -5.13667              15.353       
        299.472              -2.87198              15.268       
        300.5128             -1.90035              15.216       
        302.226             -0.640194              15.131       
        321.2482             5.59255               14.247       
        343.4143              8.5957               13.306       
        367.1099             10.1429               12.353       
        369.558               10.183               12.259       
        375.2145             9.89081               12.044       
        376.7229             9.19868               11.988       
        378.9855              10.136               13.446       
        384.642              11.1597               13.233       
        392.4405             11.9388               12.947       
        419.5189             13.6474               12.012       
        448.4657             14.8494               11.11        
        479.4098             15.7726               10.243       
        512.4891             16.4983               9.4182       
        547.8508             17.0723               8.6374       
        585.6525             17.5257               7.9026       
        626.0625             17.8814               7.2147       
        669.2609             18.1571               6.5728       
        715.4399             18.3667               5.9766       
        764.8052             18.5218               5.4252       
        817.5768             18.6322               4.917        
        873.9896             18.7063               4.4499       
        934.2948             18.7539               4.0218       
        998.7612             18.7769               3.6304       
        1067.676              18.777               3.267        
        1141.345             18.7592               2.9368       
        1220.098             18.7275               2.6275       
        1304.285             18.6758               2.3429       
        1394.281             18.6114               2.0908       
        1490.486             18.5398               1.8674       
        1593.329             18.4623               1.6641       
        1703.269             18.3778               1.4833       
        1820.795             18.2883               1.3233       
        1946.43               18.194               1.1817       
        2080.733              18.094               1.0563       
        2224.304             17.9866              0.94505       
        2377.781             17.8682              0.84636       
        2541.848             17.7332               0.7587       
        2717.235             17.5716              0.68077       
        2904.724             17.3645              0.61143       
        3105.15              17.0762              0.54407       
        3319.406              16.566              0.47995       
        3535.252             15.1657              0.42673       
        3548.445             14.9494              0.42379       
        3589.363              13.642              0.41486       
        3603.793             11.8067              0.41178       
        3625.437             13.6705               4.0255       
        3679.548             15.3599               3.9276       
        3793.288             16.5531               3.7342       
        4055.024             17.6584               3.3541       
        4334.821             18.2298               3.0167       
        4633.924             18.5966               2.7144       
        4953.664             18.8512               2.4328       
        5295.467             19.0266               2.177        
        5660.855             19.1497               1.9467       
        6051.453             19.2357               1.7396       
        6469.004             19.2949               1.5542       
        6915.365             19.3348               1.3883       
        7392.525             19.4018               1.2373       
        7902.609             19.4134               1.0989       
        8447.89              19.4155              0.97605       
        9030.794             19.4122              0.86567       
        9653.919             19.4018              0.76367       
        10320.04             19.3862              0.67372       
        11032.12             19.3677              0.59441       
        11793.34             19.3476              0.52447       
        12607.08             19.3268              0.46278       
        13476.97             19.3059              0.40837       
        14406.88             19.2855              0.36038       
        15400.95             19.2659              0.31804       
        16463.62              19.247               0.2792       
        17599.61             19.2283              0.24474       
        18813.98             19.2102              0.21455       
        20112.15             19.1929              0.18808       
        21499.88             19.1767              0.16489       
        22983.38             19.1616              0.14456       
        24569.23             19.1476              0.12674       
        26264.5               19.135              0.11112       
        28076.76             19.1233              0.09682       
        30014.05             19.1119              0.084188      
        32085.02             19.1014              0.073206      
        34298.89             19.0917              0.063658      
        36665.51             19.0827              0.055356      
        39195.43             19.0746              0.048138      
        41899.92             19.0671              0.041862      
        44791.01             19.0603              0.036404      
        47881.59             19.0542              0.031659      
        51185.42             19.0486              0.027533      
        54717.21             19.0436              0.023945      
        58492.7              19.0391              0.020825      
        62528.7               19.035              0.018111      
        66843.18             19.0313              0.015752      
        71455.36              19.028               0.0137       
        76385.78             19.0251              0.011915      
        81656.4              19.0224              0.010336      
        87290.69              19.02              0.0089613      
        93313.74             19.0178             0.0077691      
        99752.39             19.0159             0.0067356      
        106635.3             19.0142             0.0058397      
        113993.1             19.0126             0.0050629      
        121858.7             19.0112             0.0043895      
        130266.9              19.01              0.0038057      
        139255.3             19.0089             0.0032996      
        148864.0             19.0079             0.0028608      
        159135.6              19.007             0.0024804      
        170115.9             19.0062             0.0021505      
        181853.9             19.0055             0.0018646      
        194401.8             19.0049             0.0016166      
        207815.6             19.0044             0.0014017      
        222154.8             19.0039             0.0012153      
        237483.5             19.0034             0.0010537      
        253869.9              19.003             0.00091366     
        271386.9             19.0027             0.00079219     
        290112.6             19.0024             0.00068688     
        310130.4             19.0021             0.00059557     
        331529.4             19.0019             0.0005164      
        354404.9             19.0017             0.00044775     
        378858.8             19.0015             0.00038823     
        405000.1             19.0013             0.00033663     
        432945.1             19.0011             0.00029188     
