# Mn
# Form Factors from Chantler Tables
# DOI: https://dx.doi.org/10.18434/T4HS32
# automatically retrived 2019-02-27 using URL https://physics.nist.gov/cgi-bin/ffast/ffast.pl
#
# Z = 25
# f_rel = -0.098594 e/atom  (Relativistic correction estimate)
# f_NT = -0.0062409 e/atom (Nuclear Thomson correction)


#        E (eV)            f1 (e/atom)          f2 (e/atom)     
        7.000906             4.87567                0.0         
        7.108063             4.76264                0.0         
        7.116359             4.74787                0.0         
        7.136638             4.69094                0.0         
        7.179501             4.68054              0.086582      
        7.225283             4.60492              0.087712      
        7.254329             4.43167              0.088433      
        7.286658              4.5645              0.43229       
        7.297899             4.60423              0.43365       
        7.406823             4.74833              0.44694       
         10.69               4.87379              0.89599       
        11.42761             4.86446               1.0032       
        12.21612             4.85674               1.1196       
        13.05903             4.85198               1.246        
        13.9601              4.85154               1.3827       
        14.92335             4.85683               1.5303       
        15.95306             4.86935               1.6889       
        17.05382             4.89071               1.8586       
        18.23053             4.92262               2.0393       
        19.48844             4.96681               2.2306       
        20.83314             5.02507               2.4316       
        22.27063              5.0993               2.6413       
        23.8073              5.19091               2.8582       
        25.45001             5.30149               3.0804       
        27.20606             5.43236               3.3057       
        29.08327             5.58491               3.5314       
        31.09002             5.75947               3.7511       
        33.23523              5.9515               3.9586       
        35.52846             6.15427               4.1504       
        37.97993              6.3576               4.3234       
        40.60054             6.54294               4.4745       
        43.40198             6.66665               4.6014       
        46.39671             6.55405               4.7022       
         47.628              6.20116               4.7343       
         48.357              5.35353               4.751        
        48.5514              4.21071               4.7551       
         48.843              5.54427               7.0772       
        49.59809             6.78893               6.9247       
        53.02035             8.26842               6.3735       
        56.67876             8.82114               6.0061       
        60.58959             9.17629               5.7945       
        64.77028             9.46762               5.6564       
        69.23942             9.72427               5.5542       
        74.01695             9.94746               5.4705       
        79.12411             10.1123               5.3977       
         82.222              10.1176               5.3596       
        83.4805              9.99109               5.3453       
        83.8161              9.79639               5.3415       
        84.3195              10.0228               5.7433       
        84.58368             10.0962               5.7418       
         85.578              10.2519               5.7364       
        90.41995             10.6219               5.7149       
        96.65893             10.9524               5.697        
        103.3284             11.2573               5.6848       
        110.4581             11.5559               5.6777       
        118.0797             11.8579               5.6747       
        126.2272             12.1705               5.674        
        134.9368             12.5017               5.6709       
        144.2475             12.8362               5.5608       
        154.2005              13.14                5.4373       
        164.8404             13.4258               5.3132       
        176.2144             13.6967               5.1855       
        188.3732             13.9546               5.0514       
        201.3709             14.1998               4.9083       
        215.2655             14.4295               4.7517       
        230.1188             14.6387               4.5816       
        245.997              14.8229               4.3992       
        262.9708             14.9795               4.2068       
        281.1158             15.1015               4.0069       
        300.5128             15.1866               3.8023       
        321.2482             15.2308               3.5956       
        343.4143             15.2292               3.3896       
        367.1099             15.1754               3.1862       
        392.4405              15.06                2.9874       
        419.5189             14.8692               2.7947       
        448.4657             14.5809               2.6096       
        479.4098             14.1575               2.4328       
        512.4891             13.5289               2.2649       
        547.8508             12.5443               2.1063       
        585.6525             10.7856               1.9569       
        626.0625             5.92995               1.8169       
        627.494              5.54629               1.8123       
        637.0985             0.707354              1.7817       
        638.372             -0.976022              1.7778       
        639.6597             -4.53373              1.7738       
        643.5015            0.0775254              11.535       
        648.143              1.67813               11.416       
        650.7486             0.172464              11.351       
        653.106              2.39202               16.147       
        654.657              3.80093               16.092       
        664.428              7.80621               15.75        
        669.2609             8.95254               15.586       
        715.4399             14.2272               14.152       
         753.62              15.7962               13.13        
        764.8052             15.5761               12.855       
        765.155              15.5425               12.846       
        768.231              14.7738               12.772       
        772.845              15.8637               14.414       
         784.38              17.0753               14.137       
        817.5768             18.7594               13.388       
        873.9896             20.4727               12.261       
        934.2948             21.6815               11.217       
        998.7612             22.5986               10.249       
        1067.676             23.3123               9.3203       
        1141.345             23.8555               8.4254       
        1220.098             24.2393               7.5974       
        1304.285             24.5176               6.8499       
        1394.281             24.7113               6.1613       
        1490.486             24.8369               5.5413       
        1593.329             24.9125               4.9834       
        1703.269             24.9499               4.4808       
        1820.795             24.9583               4.0297       
        1946.43              24.9447               3.6251       
        2080.733             24.9156               3.2624       
        2224.304             24.8752               2.9374       
        2377.781             24.8294               2.6463       
        2541.848             24.7785               2.3855       
        2717.235             24.7246               2.1404       
        2904.724             24.6691                1.92        
        3105.15               24.612               1.7102       
        3319.406             24.5255               1.508        
        3548.445             24.4274               1.331        
        3793.288             24.3202               1.176        
        4055.024             24.2039                1.04        
        4334.821             24.0759               0.9207       
        4633.924             23.9312              0.81589       
        4953.664             23.7601              0.72375       
        5295.467             23.5437              0.64266       
        5660.855             23.2388              0.57123       
        6051.453             22.7115              0.50825       
        6408.22              21.4354              0.46011       
        6469.004             20.7891              0.45266       
        6506.305             19.9795              0.44818       
        6532.461             18.2218              0.44509       
        6571.695             20.0165               3.9072       
        6669.78               21.641               3.797        
        6915.365             22.9017               3.547        
        7392.525             23.8502               3.1829       
        7902.609             24.3589               2.8708       
        8447.89              24.6957               2.5884       
        9030.794             24.9352               2.3192       
        9653.919             25.0944               2.0682       
        10320.04             25.2022               1.8446       
        11032.12             25.2757               1.6453       
        11793.34             25.3252               1.4677       
        12607.08             25.3579               1.3092       
        13476.97             25.4183               1.1631       
        14406.88              25.424               1.0284       
        15400.95             25.4196               0.9087       
        16463.62             25.4086              0.80299       
        17599.61             25.3932              0.70962       
        18813.98             25.3751              0.62716       
        20112.15             25.3554              0.55431       
        21499.88             25.3349              0.48995       
        22983.38             25.3143              0.43309       
        24569.23             25.2941              0.38284       
        26264.5              25.2746              0.33845       
        28076.76             25.2565              0.29781       
        30014.05             25.2383              0.26044       
        32085.02              25.22               0.22761       
        34298.89             25.2021              0.19892       
        36665.51             25.1851              0.17386       
        39195.43             25.1691              0.15195       
        41899.92             25.1541              0.13281       
        44791.01             25.1401              0.11608       
        47881.59             25.1272              0.10146       
        51185.42             25.1153              0.088683      
        54717.21             25.1044              0.077519      
        58492.7              25.0944              0.067762      
        62528.7              25.0853              0.059235      
        66843.18              25.077              0.051782      
        71455.36             25.0695              0.045268      
        76385.78             25.0626              0.039574      
        81656.4              25.0565              0.03454       
        87290.69             25.0508              0.030033      
        93313.74             25.0456              0.026114      
        99752.39             25.0409              0.022708      
        106635.3             25.0367              0.019746      
        113993.1             25.0329              0.01717       
        121858.7             25.0294              0.014931      
        130266.9             25.0263              0.012984      
        139255.3             25.0235              0.011291      
        148864.0              25.021              0.009819      
        159135.6             25.0187             0.0085389      
        170115.9             25.0167             0.0074258      
        181853.9             25.0149             0.0064579      
        194401.8             25.0133             0.0056162      
        207815.6             25.0118             0.0048843      
        222154.8             25.0105             0.0042478      
        237483.5             25.0094             0.0036942      
        253869.9             25.0083             0.0032129      
        271386.9             25.0074             0.0027943      
        290112.6             25.0066             0.0024302      
        310130.4             25.0059             0.0021136      
        331529.4             25.0052             0.0018383      
        354404.9             25.0046             0.0015988      
        378858.8             25.0041             0.0013905      
        405000.1             25.0036             0.0012094      
        432945.1             25.0032             0.0010519      
