# N
# Form Factors from Chantler Tables
# DOI: https://dx.doi.org/10.18434/T4HS32
# automatically retrived 2019-02-28 using URL https://physics.nist.gov/cgi-bin/ffast/ffast.pl

# For f_rel the second term, which is 3/5th of the Cromer-Liberman value, is used as suggested by Chantler.
# Real and imaginary part of the formfactors are: f'(E)=f1(E)+f_rel+f_NT and f''(E)=f2(E)
# see also original publication:  https://doi.org/10.1063/1.555974

# Z = 7
# f_rel = -0.003 e/atom  (Relativistic correction estimate)
# f_NT = -0.0019191 e/atom (Nuclear Thomson correction)


#        E (eV)            f1 (e/atom)          f2 (e/atom)     
         9.016              -0.991623               0.0         
         9.154               -1.99965               0.0         
         9.1908              -3.16894               0.0         
         9.246               -2.00383              2.2815       
         9.384               -1.0002               2.2891       
         10.69               0.547159              2.3575       
        11.42761             0.87087               2.3922       
        12.21612             1.13142               2.4252       
        13.05903             1.35881               2.4553       
        13.9601              1.56675               2.4814       
        14.92335             1.76235               2.5024       
        15.95306             1.94939               2.5171       
        17.05382             2.12978               2.5248       
        18.23053             2.30416               2.5246       
        19.48844             2.47213               2.5157       
        20.83314             2.63228               2.4977       
        22.27063             2.78168               2.4704       
        23.8073              2.91376               2.4334       
        25.45001             3.00357               2.387        
        25.7838              3.00473               2.3769       
        26.17845              2.9644               2.3646       
        26.28369             2.89288               2.3613       
        26.44155             2.97828               2.5098       
        26.8362              3.06936               2.5052       
        27.20606             3.11898               2.501        
        29.08327             3.29678               2.481        
        31.09002             3.45322               2.4598       
        33.23523             3.60471               2.434        
        35.52846             3.75399               2.4027       
        37.97993              3.9019               2.3648       
        40.60054             4.04756               2.3181       
        43.40198             4.18906               2.2628       
        46.39671             4.32493               2.1993       
        49.59809             4.45392               2.1284       
        53.02035             4.57503               2.051        
        56.67876             4.68748               1.9684       
        60.58959             4.79073               1.8816       
        64.77028              4.8845               1.7919       
        69.23942              4.9687               1.7005       
        74.01695             5.04344               1.6083       
        79.12411              5.1095               1.5166       
        84.58368             5.16622               1.426        
        90.41995             5.21458               1.3374       
        96.65893              5.2551               1.2514       
        103.3284             5.28833               1.1683       
        110.4581             5.31484               1.0886       
        118.0797             5.33491               1.012        
        126.2272             5.34874              0.93899       
        134.9368             5.35661              0.86967       
        144.2475              5.3587              0.80415       
        154.2005             5.35518              0.74248       
        164.8404             5.34609              0.68462       
        176.2144              5.3313              0.62932       
        188.3732             5.30915              0.57532       
        201.3709             5.27886              0.52549       
        215.2655             5.23972              0.47959       
        230.1188              5.1903              0.43741       
        245.997              5.12826              0.39869       
        262.9708             5.04985              0.36322       
        281.1158             4.94898              0.33075       
        300.5128             4.81524              0.30107       
        321.2482             4.62915              0.27396       
        343.4143              4.3485              0.24923       
        367.1099             3.85352              0.22669       
        392.4405             2.43899              0.20615       
        393.568              2.29017              0.20531       
        399.592              0.666889             0.20092       
        401.1984             -1.27959             0.19977       
        403.608              0.743479              4.0314       
        409.632              2.51867               3.9626       
        419.5189             3.58763               3.8543       
        448.4657             4.91711               3.5663       
        479.4098             5.62761               3.286        
        512.4891             6.10433               3.0109       
        547.8508             6.44813               2.7458       
        585.6525              6.7035               2.4943       
        626.0625             6.89525               2.2583       
        669.2609             7.03922               2.0388       
        715.4399             7.14645               1.836        
        764.8052             7.22503               1.6498       
        817.5768             7.28114               1.4796       
        873.9896             7.31959               1.3248       
        934.2948             7.34418               1.1842       
        998.7612             7.35796               1.0571       
        1067.676              7.3634              0.94164       
        1141.345             7.36196              0.83758       
        1220.098              7.3554              0.74413       
        1304.285             7.34489              0.66043       
        1394.281             7.33166              0.58564       
        1490.486             7.31668              0.51897       
        1593.329             7.30081              0.45964       
        1703.269             7.28407              0.40501       
        1820.795             7.26624              0.35664       
        1946.43              7.24821              0.31405       
        2080.733             7.23046              0.27654       
        2224.304             7.21328              0.24352       
        2377.781             7.19688              0.21445       
        2541.848             7.18139              0.18884       
        2717.235             7.16696               0.1663       
        2904.724             7.15398              0.14645       
        3105.15              7.14238              0.12829       
        3319.406             7.13003              0.11184       
        3548.445             7.11843              0.097505      
        3793.288             7.10763              0.085005      
        4055.024             7.09763              0.074107      
        4334.821             7.08842              0.064606      
        4633.924             7.07996              0.056324      
        4953.664             7.07222              0.049103      
        5295.467             7.06516              0.042809      
        5660.855             7.05874              0.037321      
        6051.453              7.0529              0.032537      
        6469.004             7.04762              0.028366      
        6915.365             7.04284              0.02473       
        7392.525             7.03853              0.02156       
        7902.609             7.03465              0.018724      
        8447.89              7.03113              0.016235      
        9030.794             7.02795              0.01406       
        9653.919             7.02503              0.012128      
        10320.04             7.02238              0.010461      
        11032.12               7.02              0.0090226      
        11793.34             7.01785             0.0077825      
        12607.08             7.01591             0.0067122      
        13476.97             7.01418             0.0057889      
        14406.88             7.01263             0.0049927      
        15400.95             7.01123              0.004306      
        16463.62             7.00999             0.0037138      
        17599.61             7.00888              0.003203      
        18813.98             7.00789             0.0027624      
        20112.15             7.00701             0.0023825      
        21499.88             7.00622             0.0020548      
        22983.38             7.00552             0.0017722      
        24569.23             7.00489             0.0015285      
        26264.5              7.00435             0.0013183      
        28076.76             7.00387             0.0011327      
        30014.05             7.00343             0.00097197     
        32085.02             7.00304             0.00083408     
        34298.89             7.00269             0.00071576     
        36665.51             7.00238             0.00061422     
        39195.43              7.0021             0.00052709     
        41899.92             7.00186             0.00045232     
        44791.01             7.00164             0.00038815     
        47881.59             7.00145             0.00033309     
        51185.42             7.00128             0.00028584     
        54717.21             7.00113             0.00024529     
        58492.7               7.001              0.0002105      
        62528.7              7.00088             0.00018064     
        66843.18             7.00078             0.00015501     
        71455.36             7.00068             0.00013303     
        76385.78              7.0006             0.00011416     
        81656.4              7.00053             9.7951e-05     
        87290.69             7.00047             8.4023e-05     
        93313.74             7.00041             7.2075e-05     
        99752.39             7.00036             6.1826e-05     
        106635.3             7.00032             5.3035e-05     
        113993.1             7.00028             4.5494e-05     
        121858.7             7.00025             3.9025e-05     
        130266.9             7.00022             3.3476e-05     
        139255.3             7.00019             2.8716e-05     
        148864.0             7.00017             2.4633e-05     
        159135.6             7.00015             2.1131e-05     
        170115.9             7.00013             1.8126e-05     
        181853.9             7.00012             1.5549e-05     
        194401.8              7.0001             1.3338e-05     
        207815.6             7.00009             1.1442e-05     
        222154.8             7.00008             9.815e-06      
        237483.5             7.00007             8.4195e-06     
        253869.9             7.00006             7.2224e-06     
        271386.9             7.00005             6.1956e-06     
        290112.6             7.00005             5.3147e-06     
        310130.4             7.00004             4.5591e-06     
        331529.4             7.00004             3.9109e-06     
        354404.9             7.00003             3.3549e-06     
        378858.8             7.00003             2.8779e-06     
        405000.1             7.00002             2.4688e-06     
        432945.1             7.00002             2.1178e-06     
