# Na
# Form Factors from Chantler Tables
# DOI: https://dx.doi.org/10.18434/T4HS32
# automatically retrived 2019-02-27 using URL https://physics.nist.gov/cgi-bin/ffast/ffast.pl
#
# Z = 11
# f_rel = -0.015378 e/atom  (Relativistic correction estimate)
# f_NT = -0.0028873 e/atom (Nuclear Thomson correction)


#        E (eV)            f1 (e/atom)          f2 (e/atom)     
         10.69               1.48693                0.0         
        11.42761             1.46241                0.0         
        12.21612             1.43394                0.0         
        13.05903              1.4008                0.0         
        13.9601              1.36209                0.0         
        14.92335              1.3167                0.0         
        15.95306             1.26325                0.0         
        17.05382             1.19992                0.0         
        18.23053             1.12436                0.0         
        19.48844             1.03337                0.0         
        20.83314             0.922475               0.0         
        22.27063             0.785105               0.0         
        23.8073              0.610932               0.0         
        25.45001             0.382047               0.0         
        27.20606             0.061915               0.0         
        29.08327            -0.452629               0.0         
         30.478              -1.22048               0.0         
        30.9445              -1.96928               0.0         
        31.09002             -3.28343               0.0         
        31.2555              -2.07435              1.4752       
         31.722              -1.5487               1.558        
        33.23523             -1.24532              1.8498       
        35.52846             -1.15725              2.3528       
        37.97993             -1.06542              2.9049       
        40.60054             -0.90935              3.4793       
        43.40198            -0.670261              4.0538       
        46.39671            -0.344944              4.6061       
        49.59809            0.0601422              5.1157       
        53.02035             0.530816              5.5651       
        56.67876             1.04425               5.9411       
        60.58959             1.55378               6.2352       
         62.034              1.69884               6.3186       
        62.9835              1.71644               6.3666       
        63.2367              1.61823               6.3785       
        63.6165              1.79758               6.6559       
         64.566              2.03826               6.709        
        64.77028             2.07828               6.7198       
        69.23942             2.80061               6.9123       
        74.01695             3.48119               7.033        
        79.12411             4.14972               7.0772       
        84.58368             4.79962               7.0494       
        90.41995             5.42266               6.956        
        96.65893             6.01127               6.8045       
        103.3284             6.56006               6.6036       
        110.4581             7.06488               6.3621       
        118.0797             7.52371               6.0888       
        126.2272             7.93649               5.7918       
        134.9368             8.30337               5.4758       
        144.2475             8.62338               5.1475       
        154.2005             8.89786               4.8145       
        164.8404             9.12956               4.483        
        176.2144              9.322                4.1579       
        188.3732             9.47902               3.8431       
        201.3709             9.60562               3.5414       
        215.2655              9.7036               3.2547       
        230.1188             9.77764               2.9844       
        245.997              9.83116               2.7312       
        262.9708             9.86727               2.495        
        281.1158             9.88851               2.2755       
        300.5128             9.89698               2.0722       
        321.2482             9.89457               1.8846       
        343.4143             9.88287               1.7121       
        367.1099             9.86321               1.5539       
        392.4405              9.8366               1.409        
        419.5189             9.80379               1.2767       
        448.4657             9.76525               1.1561       
        479.4098             9.72113               1.0463       
        512.4891              9.6713              0.94647       
        547.8508             9.61523              0.85583       
        585.6525             9.55196              0.77342       
        626.0625             9.47867              0.69457       
        669.2609             9.39178              0.62355       
        715.4399              9.2874              0.55968       
        764.8052             9.15862              0.50234       
        817.5768             8.99314              0.45092       
        873.9896             8.76706              0.40486       
        934.2948             8.42597              0.36364       
        998.7612              7.7997              0.32676       
        1050.658             6.52412              0.29882       
        1067.676             4.91181              0.29049       
        1071.028             3.52095               0.2889       
        1077.461             4.89062               3.3468       
        1093.542             6.12496               3.6044       
        1141.345             7.70749               4.222        
        1220.098             9.32686               4.0897       
        1304.285             10.2655               3.5285       
        1394.281             10.6769               2.9168       
        1490.486              10.85                2.5451       
        1593.329              10.968               2.2568       
        1703.269              11.054               2.0296       
        1820.795             11.1263               1.8413       
        1946.43              11.1914               1.6757       
        2080.733             11.2505               1.5228       
        2224.304             11.3511               1.3668       
        2377.781             11.3777               1.2171       
        2541.848             11.3894               1.0838       
        2717.235             11.3918              0.96513       
        2904.724              11.388              0.85948       
        3105.15              11.3852              0.76236       
        3319.406             11.3721               0.6737       
        3548.445             11.3556              0.59538       
        3793.288             11.3373              0.52617       
        4055.024             11.3182              0.46503       
        4334.821             11.2991               0.411        
        4633.924             11.2804              0.36326       
        4953.664             11.2619              0.31883       
        5295.467              11.243              0.27975       
        5660.855             11.2245              0.24548       
        6051.453             11.2068               0.2154       
        6469.004             11.1899              0.18902       
        6915.365              11.174              0.16587       
        7392.525             11.1591              0.14555       
        7902.609             11.1453              0.12773       
        8447.89              11.1325              0.11209       
        9030.794             11.1217              0.098173      
        9653.919             11.1112              0.085365      
        10320.04             11.1009              0.074228      
        11032.12             11.0913              0.064546      
        11793.34             11.0825              0.056127      
        12607.08             11.0744              0.048806      
        13476.97             11.0671              0.042441      
        14406.88             11.0604              0.036907      
        15400.95             11.0543              0.032094      
        16463.62             11.0487              0.027909      
        17599.61             11.0438              0.02427       
        18813.98             11.0393              0.021106      
        20112.15             11.0352              0.018354      
        21499.88             11.0315              0.015961      
        22983.38             11.0283              0.013875      
        24569.23             11.0253              0.012014      
        26264.5              11.0226              0.010402      
        28076.76             11.0202              0.00898       
        30014.05             11.0181             0.0077433      
        32085.02             11.0161             0.0066761      
        34298.89             11.0143              0.005756      
        36665.51             11.0128             0.0049627      
        39195.43             11.0114             0.0042788      
        41899.92             11.0101             0.0036891      
        44791.01              11.009             0.0031807      
        47881.59              11.008             0.0027424      
        51185.42             11.0071             0.0023645      
        54717.21             11.0063             0.0020387      
        58492.7              11.0056             0.0017577      
        62528.7              11.0049             0.0015155      
        66843.18             11.0044             0.0013067      
        71455.36             11.0039             0.0011267      
        76385.78             11.0034             0.00097142     
        81656.4               11.003             0.00083757     
        87290.69             11.0027             0.00072216     
        93313.74             11.0024             0.00062266     
        99752.39             11.0021             0.00053687     
        106635.3             11.0019             0.0004629      
        113993.1             11.0016             0.00039913     
        121858.7             11.0015             0.00034414     
        130266.9             11.0013             0.00029672     
        139255.3             11.0011             0.00025584     
        148864.0              11.001             0.0002206      
        159135.6             11.0009             0.0001902      
        170115.9             11.0008              0.000164      
        181853.9             11.0007             0.00014141     
        194401.8             11.0006             0.00012193     
        207815.6             11.0005             0.00010513     
        222154.8             11.0005             9.0646e-05     
        237483.5             11.0004             7.8159e-05     
        253869.9             11.0004             6.7391e-05     
        271386.9             11.0003             5.8108e-05     
        290112.6             11.0003             5.0103e-05     
        310130.4             11.0002             4.3201e-05     
        331529.4             11.0002             3.725e-05      
        354404.9             11.0002             3.2118e-05     
        378858.8             11.0002             2.7694e-05     
        405000.1             11.0001             2.3879e-05     
        432945.1             11.0001             2.059e-05      
