# Ne
# Form Factors from Chantler Tables
# DOI: https://dx.doi.org/10.18434/T4HS32
# automatically retrived 2019-02-27 using URL https://physics.nist.gov/cgi-bin/ffast/ffast.pl
#
# Z = 10
# f_rel = -0.01249 e/atom  (Relativistic correction estimate)
# f_NT = -0.0027186 e/atom (Nuclear Thomson correction)


#        E (eV)            f1 (e/atom)          f2 (e/atom)     
         10.69               0.514761               0.0         
        11.42761             0.433365               0.0         
        12.21612             0.333357               0.0         
        13.05903             0.208132               0.0         
        13.9601             0.0470096               0.0         
        14.92335            -0.169204               0.0         
        15.95306            -0.481386               0.0         
        17.05382             -1.01047               0.0         
         17.934              -1.97188               0.0         
        18.2085              -2.99087               0.0         
        18.23053             -3.18853               0.0         
        18.2817              -4.13413               0.0         
        18.3915              -3.04138              2.2083       
         18.666              -2.12394              2.2523       
        19.48844             -1.40016              2.3856       
        20.83314            -0.964316              2.6068       
        22.27063            -0.695045              2.8426       
        23.8073             -0.470803              3.0893       
        25.45001            -0.254421              3.3431       
        27.20606            -0.0293826             3.5995       
        29.08327             0.212777              3.8537       
        31.09002             0.476291              4.1006       
        33.23523             0.762562              4.3349       
        35.52846             1.07065               4.5515       
        37.97993             1.39717               4.7454       
        40.60054              1.7349               4.9122       
        43.40198             2.06269               5.0483       
          44.1               2.12873               5.076        
         44.775              2.15951               5.1005       
         44.955               2.1216               5.1067       
         45.225              2.21023               5.2321       
          45.9               2.33986               5.2606       
        46.39671             2.41484               5.2805       
        49.59809             2.83688               5.3892       
        53.02035              3.2525               5.4705       
        56.67876             3.67274               5.5205       
        60.58959             4.09378               5.5384       
        64.77028             4.51362               5.5237       
        69.23942             4.92887               5.4767       
        74.01695             5.33657               5.3983       
        79.12411             5.73279               5.286        
        84.58368             6.11057               5.1415       
        90.41995             6.46494               4.9692       
        96.65893             6.79261               4.7741       
        103.3284             7.09156               4.5611       
        110.4581             7.36082               4.335        
        118.0797             7.60028               4.1003       
        126.2272             7.81058               3.8613       
        134.9368             7.99292               3.6215       
        144.2475             8.14807               3.3842       
        154.2005             8.27968               3.152        
        164.8404             8.38901               2.927        
        176.2144             8.47827               2.7109       
        188.3732             8.54971               2.5047       
        201.3709             8.60523               2.3089       
        215.2655             8.64653               2.1241       
        230.1188             8.67533               1.9506       
        245.997              8.69321               1.7886       
        262.9708             8.70161               1.6378       
        281.1158             8.70179               1.498        
        300.5128             8.69485               1.3688       
        321.2482             8.68175               1.2497       
        343.4143             8.66338               1.1402       
        367.1099             8.63782               1.0288       
        392.4405             8.60277              0.92751       
        419.5189             8.55918              0.83571       
        448.4657             8.50711              0.75265       
        479.4098             8.44583              0.67764       
        512.4891             8.37371              0.60999       
        547.8508              8.2879              0.54905       
        585.6525             8.18372              0.49421       
        626.0625             8.05325               0.4449       
        669.2609             7.88235              0.40059       
        715.4399             7.64279              0.36079       
        764.8052             7.26655              0.32506       
        817.5768             6.51081              0.29299       
        849.562               5.3179              0.27594       
        862.5655             3.62497              0.26917       
        866.0331             1.59294              0.26742       
        871.2345             3.70829               4.2677       
        873.9896             4.35896               4.251        
        884.238              5.56519               4.1899       
        934.2948             7.48184               3.913        
        998.7612             8.47076               3.5924       
        1067.676             9.07296               3.2552       
        1141.345              9.474                2.9372       
        1220.098             9.75622               2.6424       
        1304.285             9.95856               2.3724       
        1394.281              10.105               2.1276       
        1490.486             10.2131               1.9048       
        1593.329             10.2871               1.6988       
        1703.269             10.3356               1.5147       
        1820.795             10.3659               1.3502       
        1946.43              10.3828               1.2033       
        2080.733             10.3896               1.0721       
        2224.304              10.389               0.9549       
        2377.781              10.383              0.85029       
        2541.848             10.3731              0.75695       
        2717.235             10.3599               0.6737       
        2904.724             10.3456               0.5995       
        3105.15              10.3349              0.53135       
        3319.406             10.3186              0.46926       
        3548.445             10.3011              0.41343       
        3793.288             10.2822              0.36257       
        4055.024             10.2628              0.31798       
        4334.821             10.2434              0.27888       
        4633.924             10.2247              0.24459       
        4953.664             10.2067              0.21452       
        5295.467             10.1896              0.18815       
        5660.855             10.1736              0.16502       
        6051.453             10.1586              0.14474       
        6469.004             10.1447              0.12696       
        6915.365             10.1319              0.11136       
        7392.525              10.12               0.097675      
        7902.609             10.1091              0.085676      
        8447.89              10.0992              0.075151      
        9030.794             10.0903              0.065788      
        9653.919             10.0818              0.057186      
        10320.04              10.074              0.049709      
        11032.12             10.0668              0.04321       
        11793.34             10.0602              0.037561      
        12607.08             10.0542              0.03265       
        13476.97             10.0487              0.028382      
        14406.88             10.0438              0.024672      
        15400.95             10.0393              0.021447      
        16463.62             10.0353              0.01863       
        17599.61             10.0316              0.016125      
        18813.98             10.0283              0.013956      
        20112.15             10.0253              0.012079      
        21499.88             10.0226              0.010454      
        22983.38             10.0202             0.0090465      
        24569.23              10.018             0.0078288      
        26264.5              10.0161              0.006775      
        28076.76             10.0144             0.0058415      
        30014.05             10.0128             0.0050307      
        32085.02             10.0114             0.0043323      
        34298.89             10.0101              0.003731      
        36665.51              10.009             0.0032131      
        39195.43              10.008             0.0027671      
        41899.92             10.0071              0.002383      
        44791.01             10.0063             0.0020523      
        47881.59             10.0056             0.0017674      
        51185.42              10.005             0.0015221      
        54717.21             10.0044             0.0013109      
        58492.7              10.0039             0.0011289      
        62528.7              10.0034             0.00097225     
        66843.18             10.0031             0.00083732     
        71455.36             10.0027             0.00072111     
        76385.78             10.0024             0.00062104     
        81656.4              10.0021             0.00053516     
        87290.69             10.0019             0.00046175     
        93313.74             10.0016             0.0003984      
        99752.39             10.0015             0.00034375     
        106635.3             10.0013             0.0002966      
        113993.1             10.0011             0.00025591     
        121858.7              10.001             0.00022081     
        130266.9             10.0009             0.00019052     
        139255.3             10.0008             0.00016439     
        148864.0             10.0007             0.00014184     
        159135.6             10.0006             0.00012238     
        170115.9             10.0005             0.0001056      
        181853.9             10.0005             9.1113e-05     
        194401.8             10.0004             7.8615e-05     
        207815.6             10.0004             6.7832e-05     
        222154.8             10.0003             5.8528e-05     
        237483.5             10.0003              5.05e-05      
        253869.9             10.0003             4.3573e-05     
        271386.9             10.0002             3.7597e-05     
        290112.6             10.0002             3.244e-05      
        310130.4             10.0002             2.799e-05      
        331529.4             10.0002             2.4151e-05     
        354404.9             10.0001             2.0839e-05     
        378858.8             10.0001             1.798e-05      
        405000.1             10.0001             1.5514e-05     
        432945.1             10.0001             1.3386e-05     
