# Ni
# Form Factors from Chantler Tables
# DOI: https://dx.doi.org/10.18434/T4HS32
# automatically retrived 2019-02-28 using URL https://physics.nist.gov/cgi-bin/ffast/ffast.pl

# For f_rel the second term, which is 3/5th of the Cromer-Liberman value, is used as suggested by Chantler.
# Real and imaginary part of the formfactors are: f'(E)=f1(E)+f_rel+f_NT and f''(E)=f2(E)
# see also original publication:  https://doi.org/10.1063/1.555974

# Z = 28
# f_rel = -0.081 e/atom  (Relativistic correction estimate)
# f_NT = -0.0073281 e/atom (Nuclear Thomson correction)


#        E (eV)            f1 (e/atom)          f2 (e/atom)     
         10.69               3.57659               1.4343       
        11.42761             3.57599               1.5448       
        12.21612             3.57095               1.667        
        13.05903             3.56836               1.8017       
        13.9601              3.56968                1.95        
        14.92335             3.57685               2.1125       
        15.95306             3.59151               2.2884       
        17.05382             3.61476               2.4778       
        18.23053             3.64791               2.6808       
        19.48844             3.69236               2.8974       
        20.83314             3.74958               3.1272       
        22.27063             3.82103               3.3699       
        23.8073              3.90818               3.625        
        25.45001             4.01245               3.892        
        27.20606             4.13521               4.1699       
        29.08327             4.27778               4.4581       
        31.09002             4.44144               4.7557       
        33.23523             4.62739               5.0616       
        35.52846             4.83686               5.3751       
        37.97993             5.07105               5.6954       
        40.60054             5.33124               6.0216       
        43.40198             5.61884               6.3532       
        46.39671             5.93534               6.6897       
        49.59809             6.28228               7.0309       
        53.02035             6.72188               7.3516       
        56.67876             7.16643               7.6429       
        60.58959             7.58919               7.9225       
        64.77028             7.89984               8.1889       
         66.738              7.81083               8.3039       
        67.7595              7.29248               8.3483       
        68.0319              6.49266               8.3411       
        68.4405              7.47679               10.005       
        69.23942             8.30426               9.9197       
         69.462              8.44458               9.8964       
        74.01695             9.92898               9.4522       
        79.12411             10.7677               9.042        
        84.58368             11.3913               8.7086       
        90.41995             11.9094               8.4128       
        96.65893             12.3487               8.1362       
        103.3284             12.7032               7.8715       
        109.564              12.8584               7.6469       
        110.4581             12.8304               7.6164       
        111.241              12.7438               7.5899       
        111.6882             12.5364               7.5749       
        112.359               12.794               7.9994       
        114.036              13.0669               7.9514       
        118.0797             13.3934               7.8409       
        126.2272             13.8459               7.639        
        134.9368             14.2329               7.4472       
        144.2475             14.5869               7.2647       
        154.2005             14.9196               7.0911       
        164.8404             15.2378               6.925        
        176.2144             15.5459               6.7644       
        188.3732             15.8466               6.6064       
        201.3709             16.1413               6.448        
        215.2655             16.4384               6.2862       
        230.1188              16.72                6.1183       
        245.997              16.9927               5.942        
        262.9708             17.2537               5.756        
        281.1158             17.5008               5.5592       
        300.5128             17.7292               5.3486       
        321.2482              17.933               5.1254       
        343.4143             18.1062               4.8924       
        367.1099             18.2471               4.6526       
        392.4405             18.3508               4.4092       
        419.5189             18.4135               4.165        
        448.4657              18.431               3.923        
        479.4098             18.3977               3.6854       
        512.4891             18.3055               3.4539       
        547.8508             18.1427               3.2304       
        585.6525             17.8905               3.0161       
        626.0625             17.5178               2.8117       
        669.2609             16.9681               2.618        
        715.4399             16.1269               2.4352       
        764.8052             14.7079               2.2632       
        817.5768             11.5821               2.1021       
        837.606              8.76961               2.0462       
        850.4265             3.93819               2.0119       
        854.462              -5.44705              2.0013       
        858.9735             3.45285               11.918       
        867.5405             5.48784               11.735       
        871.0281             3.82284               11.662       
        871.794              0.68749               11.646       
        873.9896              5.8096               16.508       
        876.2595             7.36968               16.442       
        889.338              11.2789               16.066       
        934.2948             16.2345               14.877       
        987.938              18.4258               13.649       
        998.7612             18.4133               13.424       
        1003.06              18.2231               13.334       
        1007.092             17.4472               13.251       
        1013.141             18.5689               14.933       
        1028.262             19.8654               14.615       
        1067.676             21.5374               13.841       
        1141.345             23.3736               12.599       
        1220.098             24.6251               11.485       
        1304.285             25.5591               10.475       
        1394.281             26.2818               9.5264       
        1490.486             26.8506               8.6323       
        1593.329             27.2544               7.7753       
        1703.269             27.5358               7.0012       
        1820.795              27.73                6.3039       
        1946.43              27.8603               5.6777       
        2080.733             27.9855               5.1095       
        2224.304             28.0289               4.592        
        2377.781             28.0405               4.1285       
        2541.848             28.0299               3.7138       
        2717.235             28.0016               3.343        
        2904.724             27.9659               3.0114       
        3105.15              27.9386               2.6981       
        3319.406             27.8847               2.4055       
        3548.445             27.8165               2.1392       
        3793.288              27.734               1.897        
        4055.024             27.6425               1.6844       
        4334.821             27.5458               1.4976       
        4633.924             27.4435               1.3269       
        4953.664             27.3322               1.1761       
        5295.467             27.2114               1.0433       
        5660.855             27.0779              0.92645       
        6051.453             26.9254              0.82342       
        6469.004             26.7418              0.73254       
        6915.365             26.5023              0.65229       
        7392.525             26.1454              0.58138       
        7902.609             25.4382              0.51866       
        8166.144             24.5187              0.49051       
        8291.136             23.0862              0.47804       
        8324.467             21.3577               0.4748       
        8374.464             23.1229               3.8783       
        8447.89              24.2866               3.8127       
        8499.456             24.7181               3.7677       
        9030.794             26.3786               3.4017       
        9653.919             27.1216               3.0709       
        10320.04             27.5654               2.7492       
        11032.12             27.8453               2.4485       
        11793.34             28.0311               2.1838       
        12607.08             28.1583               1.9478       
        13476.97             28.2454               1.7376       
        14406.88             28.3043               1.5502       
        15400.95             28.3432               1.3831       
        16463.62             28.3682               1.2341       
        17599.61             28.4192               1.0942       
        18813.98             28.4194              0.96902       
        20112.15              28.412               0.8582       
        21499.88             28.3996              0.76013       
        22983.38             28.3839              0.67282       
        24569.23             28.3663              0.59559       
        26264.5              28.3479              0.52725       
        28076.76              28.329              0.46461       
        30014.05             28.3086              0.40881       
        32085.02              28.288              0.35972       
        34298.89             28.2678              0.31655       
        36665.51             28.2484              0.27821       
        39195.43             28.2295              0.24347       
        41899.92              28.211              0.21307       
        44791.01             28.1934              0.18647       
        47881.59             28.1768               0.1632       
        51185.42             28.1613              0.14284       
        54717.21             28.1468              0.12502       
        58492.7              28.1334              0.10943       
        62528.7              28.1211              0.095778      
        66843.18             28.1097              0.083836      
        71455.36             28.0994              0.073385      
        76385.78             28.0899              0.064239      
        81656.4              28.0813              0.056155      
        87290.69             28.0734              0.048934      
        93313.74             28.0662              0.042642      
        99752.39             28.0596              0.037161      
        106635.3             28.0536              0.032385      
        113993.1             28.0481              0.028224      
        121858.7             28.0432              0.024598      
        130266.9             28.0387              0.021438      
        139255.3             28.0347              0.018685      
        148864.0             28.0311              0.016286      
        159135.6             28.0278              0.014196      
        170115.9             28.0248              0.012374      
        181853.9             28.0222              0.010786      
        194401.8             28.0198              0.009402      
        207815.6             28.0177              0.008196      
        222154.8             28.0158             0.0071448      
        237483.5             28.0141             0.0062286      
        253869.9             28.0125              0.00543       
        271386.9             28.0112             0.0047339      
        290112.6             28.0099             0.0041272      
        310130.4             28.0088             0.0035983      
        331529.4             28.0079             0.0031373      
        354404.9              28.007             0.0027354      
        378858.8             28.0062              0.002385      
        405000.1             28.0055             0.0020796      
        432945.1             28.0049             0.0018133      
