# O
# Form Factors from Chantler Tables
# DOI: https://dx.doi.org/10.18434/T4HS32
# automatically retrived 2019-02-27 using URL https://physics.nist.gov/cgi-bin/ffast/ffast.pl
#
# Z = 8
# f_rel = -0.0077133 e/atom  (Relativistic correction estimate)
# f_NT = -0.0021944 e/atom (Nuclear Thomson correction)


#        E (eV)            f1 (e/atom)          f2 (e/atom)     
         6.958               -2.2073                0.0         
         7.0645              -3.19554               0.0         
         7.0929              -4.32288               0.0         
         7.1355              -3.22458              2.1888       
         7.242               -2.2889               2.2193       
         10.69               0.21149               2.8635       
        11.42761             0.432528              2.9247       
        12.21612             0.641679              2.9771       
        13.05903             0.84133               3.0227       
        13.9601              1.03339               3.0629       
        14.92335             1.21943               3.0988       
        15.95306              1.4007               3.1309       
        17.05382             1.57805               3.1595       
        18.23053             1.75182               3.1845       
        19.48844              1.9214               3.2056       
        20.83314              2.0843               3.2222       
        22.27063             2.23222               3.2335       
         23.226              2.29401               3.2375       
        23.5815              2.27485               3.2384       
        23.6763              2.21999               3.2385       
        23.8073              2.29056               3.3643       
        23.8185              2.29549               3.3645       
         24.174              2.38419               3.3716       
        25.45001             2.56373               3.3962       
        27.20606             2.77017               3.4281       
        29.08327             2.97896               3.455        
        31.09002             3.19372               3.4718       
        33.23523             3.41313               3.4762       
        35.52846             3.63537               3.4671       
        37.97993             3.85841               3.4438       
        40.60054             4.08006               3.4059       
        43.40198             4.29812               3.3536       
        46.39671             4.51045               3.2873       
        49.59809             4.71509               3.208        
        53.02035             4.91032               3.117        
        56.67876             5.09473               3.0157       
        60.58959             5.26727               2.9059       
        64.77028             5.42719               2.7892       
        69.23942              5.5741               2.6674       
        74.01695             5.70887               2.5423       
        79.12411             5.82981               2.4154       
        84.58368              5.9383               2.2881       
        90.41995             6.03498               2.1619       
        96.65893             6.12073               2.0376       
        103.3284             6.19637               1.9159       
        110.4581             6.26258               1.7974       
        118.0797             6.32029               1.6829       
        126.2272             6.37066               1.5728       
        134.9368             6.41516               1.4636       
        144.2475             6.44826               1.343        
        154.2005             6.46854               1.2306       
        164.8404              6.4786               1.1262       
        176.2144             6.48016               1.0297       
        188.3732             6.47437              0.94068       
        201.3709             6.46203              0.85876       
        215.2655             6.44358              0.78355       
        230.1188             6.41919              0.71464       
        245.997              6.38871              0.65159       
        262.9708             6.35166              0.59399       
        281.1158             6.30713              0.54143       
        300.5128             6.25366              0.49351       
        321.2482             6.18896              0.44986       
        343.4143             6.10952              0.41012       
        367.1099             6.00975              0.37397       
        392.4405             5.88028               0.3411       
        419.5189             5.70405              0.31121       
        448.4657             5.44549              0.28376       
        479.4098             5.01012              0.25661       
        512.4891             3.97074              0.23191       
         521.36              3.28506              0.22593       
         529.34              1.63837              0.22075       
        531.468             -0.336417             0.21941       
         534.66              1.71635               4.1067       
         542.64               3.5178               4.036        
        547.8508             4.05204               3.9911       
        585.6525             5.74654               3.6911       
        626.0625             6.55266               3.3971       
        669.2609              7.0748               3.1024       
        715.4399             7.44087               2.8186       
        764.8052             7.70602               2.5523       
        817.5768              7.9015               2.3068       
        873.9896              8.0483               2.0831       
        934.2948             8.16115               1.8753       
        998.7612             8.24254               1.6834       
        1067.676             8.30267               1.5016       
        1141.345             8.33861               1.3385       
        1220.098             8.35935               1.1926       
        1304.285             8.36902               1.0621       
        1394.281              8.3705              0.94552       
        1490.486             8.36596              0.84147       
        1593.329             8.35705              0.74865       
        1703.269             8.34592               0.6659       
        1820.795             8.33198              0.59217       
        1946.43              8.31689              0.52651       
        2080.733             8.30145              0.46808       
        2224.304             8.28581              0.41395       
        2377.781             8.26885              0.36513       
        2541.848             8.25152              0.32207       
        2717.235             8.23442              0.28409       
        2904.724             8.21791              0.25059       
        3105.15              8.20256              0.21994       
        3319.406             8.18728              0.19213       
        3548.445             8.17222              0.16784       
        3793.288             8.15779              0.14662       
        4055.024             8.14414              0.12808       
        4334.821             8.13136              0.11189       
        4633.924             8.11947              0.097749      
        4953.664             8.10847              0.085394      
        5295.467             8.09834              0.074601      
        5660.855             8.08903              0.065172      
        6051.453             8.08051              0.056936      
        6469.004             8.07273              0.04974       
        6915.365             8.06564              0.043455      
        7392.525              8.0592              0.037964      
        7902.609             8.05336              0.033166      
        8447.89              8.04808              0.028976      
        9030.794             8.04333              0.025277      
        9653.919             8.03905              0.021935      
        10320.04             8.03513              0.018995      
        11032.12             8.03154              0.016411      
        11793.34             8.02827              0.014177      
        12607.08              8.0253              0.012248      
        13476.97             8.02262              0.010581      
        14406.88             8.02021             0.0091406      
        15400.95             8.01804             0.0078965      
        16463.62             8.01609             0.0068218      
        17599.61             8.01434             0.0058934      
        18813.98             8.01277             0.0050913      
        20112.15             8.01137             0.0043984      
        21499.88             8.01012             0.0037998      
        22983.38              8.009              0.0032827      
        24569.23             8.00801              0.002836      
        26264.5              8.00713              0.00245       
        28076.76             8.00633             0.0021079      
        30014.05             8.00562              0.001811      
        32085.02             8.00498              0.001556      
        34298.89             8.00442             0.0013368      
        36665.51             8.00392             0.0011486      
        39195.43             8.00347             0.00098682     
        41899.92             8.00307             0.00084786     
        44791.01             8.00272             0.00072846     
        47881.59              8.0024             0.00062588     
        51185.42             8.00213             0.00053774     
        54717.21             8.00188             0.00046201     
        58492.7              8.00166             0.00039695     
        62528.7              8.00147             0.00034106     
        66843.18              8.0013             0.00029303     
        71455.36             8.00114             0.00025177     
        76385.78             8.00101             0.00021632     
        81656.4              8.00089             0.0001858      
        87290.69             8.00079             0.00015948     
        93313.74             8.00069             0.00013689     
        99752.39             8.00061             0.0001175      
        106635.3             8.00054             0.00010086     
        113993.1             8.00048             8.6571e-05     
        121858.7             8.00042             7.4309e-05     
        130266.9             8.00037             6.3783e-05     
        139255.3             8.00033             5.4749e-05     
        148864.0             8.00029             4.6994e-05     
        159135.6             8.00025             4.0338e-05     
        170115.9             8.00022             3.4625e-05     
        181853.9              8.0002             2.9721e-05     
        194401.8             8.00017             2.5511e-05     
        207815.6             8.00015             2.1898e-05     
        222154.8             8.00013             1.8797e-05     
        237483.5             8.00012             1.6135e-05     
        253869.9              8.0001             1.3849e-05     
        271386.9             8.00009             1.1888e-05     
        290112.6             8.00008             1.0204e-05     
        310130.4             8.00007             8.7592e-06     
        331529.4             8.00006             7.5187e-06     
        354404.9             8.00005             6.4539e-06     
        378858.8             8.00005             5.5399e-06     
        405000.1             8.00004             4.7554e-06     
        432945.1             8.00004             4.0819e-06     
