# P
# Form Factors from Chantler Tables
# DOI: https://dx.doi.org/10.18434/T4HS32
# automatically retrived 2019-02-28 using URL https://physics.nist.gov/cgi-bin/ffast/ffast.pl

# For f_rel the second term, which is 3/5th of the Cromer-Liberman value, is used as suggested by Chantler.
# Real and imaginary part of the formfactors are: f'(E)=f1(E)+f_rel+f_NT and f''(E)=f2(E)
# see also original publication:  https://doi.org/10.1063/1.555974

# Z = 15
# f_rel = -0.018 e/atom  (Relativistic correction estimate)
# f_NT = -0.003985 e/atom (Nuclear Thomson correction)


#        E (eV)            f1 (e/atom)          f2 (e/atom)     
        6.209957             -1.26929               0.0         
        6.257232             -1.66855               0.0         
        6.305007             -2.31139               0.0         
        6.330354             -3.07745               0.0         
        6.353005             -3.18301             0.94416       
        6.368374             -3.42247             0.95617       
        6.378545             -3.94072             0.96419       
        6.416855             -2.90422              2.9193       
        6.463425             -2.33032              3.0314       
        6.512629             -2.02658              3.1536       
         10.69               6.73661               3.073        
        11.42761             6.70372               2.2393       
        12.21612             6.52061               1.6032       
        13.05903              6.2759               1.1415       
        13.9601              6.02132              0.81618       
        14.17226             5.96539              0.75768       
        14.38918             5.91002              0.70351       
        14.44703             5.89549              0.68995       
        14.5338              5.87424              0.67052       
        14.75072             5.82233              0.62463       
        14.92335              5.7824              0.59118       
        15.95306             5.56893              0.43681       
        17.05382              5.382               0.33202       
        18.23053             5.21926              0.26246       
        19.48844             5.07806              0.21892       
        20.83314             4.95436              0.19555       
        22.27063             4.84692              0.18825       
        23.8073              4.75458              0.19364       
        25.45001             4.67639              0.20852       
        27.20606             4.61122              0.22988       
        29.08327             4.55762              0.25483       
        31.09002             4.51357              0.28079       
        33.23523             4.47659              0.30586       
        35.52846             4.44405              0.32885       
        37.97993             4.41334              0.34935       
        40.60054             4.38215              0.36723       
        43.40198             4.34843              0.38272       
        46.39671             4.30977              0.39627       
        49.59809             4.26427              0.40847       
        53.02035             4.20979              0.42008       
        56.67876             4.14493              0.43148       
        60.58959              4.067               0.44289       
        64.77028             3.97288              0.45446       
        69.23942             3.85846              0.46625       
        74.01695             3.71823               0.4782       
        79.12411             3.54439              0.49011       
        84.58368             3.32567              0.50174       
        90.41995             3.04495              0.51277       
        96.65893             2.67477              0.52288       
        103.3284             2.16732              0.53177       
        110.4581             1.42815              0.53914       
        118.0797             0.226515             0.54479       
        126.2272             -2.33819             0.53712       
        129.556              -4.8695              0.53236       
        131.539              -9.24896             0.52939       
        132.0678             -14.359              0.52859       
        132.861              -9.2459               10.516       
        134.9368             -4.70611              10.551       
        144.2475             0.239838              10.704       
        154.2005             2.55586               10.79        
        164.8404             4.24825               10.709       
        176.2144             5.53947               10.481       
        185.514              6.11355               10.223       
        188.3732             5.89518               10.134       
        189.1107             5.40553               10.111       
        190.2465             6.07332               11.179       
        193.086              6.81272               11.093       
        201.3709             7.90149               10.828       
        215.2655             9.14404               10.352       
        230.1188             10.1493               9.8221       
        245.997              10.9897               9.2561       
        262.9708             11.6948               8.6714       
        281.1158             12.2841               8.0814       
        300.5128             12.7723               7.4974       
        321.2482             13.1729               6.9286       
        343.4143             13.4977               6.3813       
        367.1099             13.7575               5.8599       
        392.4405             13.9617               5.3671       
        419.5189             14.1172               4.9045       
        448.4657             14.2345               4.4727       
        479.4098             14.3183               4.0715       
        512.4891             14.3744               3.7002       
        547.8508             14.4075               3.3577       
        585.6525              14.423               3.0418       
        626.0625             14.4202               2.7517       
        669.2609             14.4036               2.4862       
        715.4399             14.3758               2.2441       
        764.8052              14.339               2.0239       
        817.5768             14.2948               1.8239       
        873.9896             14.2446               1.6428       
        934.2948             14.1907               1.4792       
        998.7612             14.1474               1.3319       
        1067.676             14.0846               1.1806       
        1141.345             14.0043               1.0473       
        1220.098              13.914                0.93        
        1304.285             13.8136              0.82665       
        1394.281             13.7007              0.73553       
        1490.486             13.5703              0.65511       
        1593.329             13.4131              0.58408       
        1703.269             13.2121              0.52128       
        1820.795             12.9304               0.4657       
        1946.43              12.4678              0.41646       
        2080.733             11.3134              0.37279       
        2102.59              10.8633              0.36641       
        2134.772             9.28431              0.35735       
        2143.354             7.39192               0.355        
        2156.227             9.29308               4.0785       
        2188.41              11.0202               4.0118       
        2224.304             11.8112               3.9399       
        2377.781             13.2998               3.5859       
        2541.848             14.0078               3.2218       
        2717.235             14.4377               2.887        
        2904.724              14.725               2.5936       
        3105.15              14.9354               2.3262       
        3319.406             15.0821               2.0806       
        3548.445             15.1854               1.8611       
        3793.288             15.2583               1.664        
        4055.024             15.3093               1.4879       
        4334.821             15.3912               1.3284       
        4633.924             15.4105               1.1761       
        4953.664             15.4155               1.0413       
        5295.467             15.4114              0.92199       
        5660.855             15.4013               0.8164       
        6051.453             15.3871              0.72293       
        6469.004             15.3703               0.6402       
        6915.365             15.3519              0.56693       
        7392.525             15.3326              0.50207       
        7902.609             15.3133              0.44464       
        8447.89              15.2943               0.3938       
        9030.794             15.2766              0.34826       
        9653.919              15.259              0.30528       
        10320.04             15.2404              0.26689       
        11032.12              15.222              0.23334       
        11793.34             15.2041              0.20401       
        12607.08              15.187              0.17838       
        13476.97              15.171              0.15596       
        14406.88             15.1559              0.13637       
        15400.95             15.1419              0.11924       
        16463.62              15.129              0.10427       
        17599.61              15.117              0.091177      
        18813.98             15.1061              0.079731      
        20112.15              15.096              0.069723      
        21499.88             15.0869              0.060972      
        22983.38             15.0785              0.053321      
        24569.23              15.071              0.04663       
        26264.5              15.0642              0.04078       
        28076.76             15.0579              0.035454      
        30014.05             15.0521              0.030764      
        32085.02             15.0469              0.026694      
        34298.89             15.0421              0.023164      
        36665.51             15.0377               0.0201       
        39195.43             15.0338              0.017442      
        41899.92             15.0303              0.015135      
        44791.01             15.0271              0.013134      
        47881.59             15.0242              0.011368      
        51185.42             15.0216             0.0098273      
        54717.21             15.0193             0.0084957      
        58492.7              15.0172             0.0073447      
        62528.7              15.0154             0.0063496      
        66843.18             15.0137             0.0054893      
        71455.36             15.0122             0.0047457      
        76385.78             15.0108             0.0041028      
        81656.4              15.0096             0.0035473      
        87290.69             15.0085             0.0030675      
        93313.74             15.0076             0.0026527      
        99752.39             15.0067              0.002294      
        106635.3              15.006             0.0019838      
        113993.1             15.0053             0.0017155      
        121858.7             15.0047             0.0014836      
        130266.9             15.0042              0.001283      
        139255.3             15.0037             0.0011096      
        148864.0             15.0033             0.00095957     
        159135.6             15.0029             0.00082986     
        170115.9             15.0026             0.00071769     
        181853.9             15.0023             0.00062069     
        194401.8              15.002             0.0005368      
        207815.6             15.0018             0.00046426     
        222154.8             15.0016             0.00040152     
        237483.5             15.0014             0.00034726     
        253869.9             15.0012             0.00030034     
        271386.9             15.0011             0.00025976     
        290112.6              15.001             0.00022466     
        310130.4             15.0008             0.00019431     
        331529.4             15.0007             0.00016806     
        354404.9             15.0007             0.00014536     
        378858.8             15.0006             0.00012572     
        405000.1             15.0005             0.00010874     
        432945.1             15.0005             9.4055e-05     
