# Pd
# Form Factors from Chantler Tables
# DOI: https://dx.doi.org/10.18434/T4HS32
# automatically retrived 2019-02-28 using URL https://physics.nist.gov/cgi-bin/ffast/ffast.pl

# For f_rel the second term, which is 3/5th of the Cromer-Liberman value, is used as suggested by Chantler.
# Real and imaginary part of the formfactors are: f'(E)=f1(E)+f_rel+f_NT and f''(E)=f2(E)
# see also original publication:  https://doi.org/10.1063/1.555974

# Z = 46
# f_rel = -0.2682 e/atom  (Relativistic correction estimate)
# f_NT = -0.010908 e/atom (Nuclear Thomson correction)


#        E (eV)            f1 (e/atom)          f2 (e/atom)     
        4.918045             6.71496                0.0         
        4.993321             6.11262                0.0         
        5.013395             5.44009                0.0         
        5.043505             6.10578               1.2926       
        5.118781             6.63715               1.2527       
        5.337699             6.79644               1.1464       
        5.419399             6.49543               1.1101       
        5.441185             6.06873               1.1007       
        5.473865             6.55164               1.9521       
        5.555565             6.98189               1.8837       
         10.69               6.01744               5.9028       
        11.42761             6.42158               6.958        
        12.21612             7.09077               7.9974       
        13.05903             8.02678               8.9357       
        13.9601              9.19859               9.6879       
        14.92335             10.5437               10.183       
        15.95306             12.1215               10.377       
        17.05382             13.6564               10.26        
        18.23053             14.9854               9.8569       
        19.48844             16.1464               9.2189       
        20.83314             17.0936               8.4134       
        22.27063             17.8069               7.512        
        23.8073              18.2908               6.5829       
        25.45001             18.5688               5.6822       
        27.20606             18.6751               4.8484       
        29.08327             18.6465               4.1035       
        31.09002             18.5158               3.4558       
        33.23523             18.3091               2.9046       
        35.52846             18.0435               2.4427       
        37.97993             17.7246               2.0602       
        40.60054             17.3419               1.7461       
        43.40198             16.8525               1.4895       
        46.39671             16.1137               1.2807       
        49.59809             14.2976               1.1109       
         50.078               13.623               1.0892       
        50.8445              10.9636               1.0562       
        51.0489               7.5959               1.0478       
        51.3555              11.4201               7.7492       
         52.122              14.7671               7.1742       
        53.02035             16.2824               6.5676       
        56.67876             18.3065               4.6854       
        60.58959             18.6618               3.4892       
        64.77028             18.6221               2.7454       
        69.23942             18.4661               2.2608       
        74.01695              18.275               1.9334       
        79.12411             18.0705               1.7064       
        84.58368             17.8268               1.5464       
         84.672              17.8216               1.5443       
         85.968              17.7138               1.5151       
        86.3136              17.6255               1.5077       
         86.832              17.6845               1.6484       
         88.128              17.7103               1.6287       
        90.41995             17.6846               1.5993       
        96.65893             17.5705               1.5516       
        103.3284             17.4529               1.538        
        110.4581              17.342               1.5483       
        118.0797             17.2375               1.5724       
        126.2272             17.1364               1.6069       
        134.9368             17.0353               1.6492       
        144.2475             16.9303               1.6973       
        154.2005             16.8155               1.7494       
        164.8404             16.6888               1.8042       
        176.2144             16.5424               1.8604       
        188.3732             16.3683               1.9166       
        201.3709             16.1564               1.9719       
        215.2655             15.8928               2.0248       
        230.1188             15.5574               2.0736       
        245.997              15.1204               2.1173       
        262.9708             14.5368               2.1553       
        281.1158             13.7202               2.1866       
        300.5128             12.4975               2.2108       
        321.2482             10.3106               2.2275       
        328.006              9.03284               2.2311       
         333.2               7.08114               2.2334       
        334.3653             5.69216               2.2338       
        336.3735             6.38916               4.6967       
         338.3               6.32003               4.7964       
         339.66              5.52007               4.8687       
         341.7               6.37537               6.7251       
        343.4143             6.72139               6.8812       
         346.8               6.99095               7.203        
        367.1099             6.90251               9.5564       
        392.4405             7.18951               13.17        
        419.5189             8.67316               16.686       
        448.4657             11.0867               19.54        
        479.4098             13.9123               21.425       
        512.4891             16.2885               22.29        
         520.87              16.4916               22.359       
        528.8425             15.8269               22.378       
        530.9685             14.4342               22.376       
        534.1575             16.2489               25.425       
         542.13               18.169               25.386       
        547.8508             18.9247               25.337       
        547.918              18.9321               25.336       
        556.3045             19.4716               25.236       
        558.5409             19.0688               25.204       
        561.8955             20.1262               26.465       
        570.282              21.6034               26.325       
        585.6525             23.4214               26.01        
        626.0625             26.8121               24.928       
        656.502              28.4827               23.978       
        666.5505             28.6202               23.654       
        669.2609             28.2322               23.566       
        673.2495             28.9922               24.461       
        683.298              29.9729               24.134       
        715.4399             31.8543               23.094       
        764.8052              33.881               21.563       
        817.5768             35.4626               20.056       
        873.9896             36.7357               18.617       
        934.2948             37.7973               17.25        
        998.7612             38.7285               15.952       
        1067.676             39.4074               14.612       
        1141.345             39.8884               13.372       
        1220.098             40.2408               12.224       
        1304.285             40.4949               11.173       
        1394.281             40.6675               10.16        
        1490.486             40.7247               9.2068       
        1593.329             40.6964               8.3565       
        1703.269              40.617               7.5968       
        1820.795             40.4717               6.9175       
        1946.43              40.2765               6.3097       
        2080.733             40.0306               5.7651       
        2224.304             39.7193               5.2551       
        2377.781             39.2989               4.7721       
        2541.848              38.719               4.3369       
        2717.235             37.8775               3.9451       
        2904.724             36.4793               3.5896       
        3105.15              32.9123               3.227        
        3109.834             32.7326               3.2184       
        3157.434             29.3641               3.133        
        3170.127             25.6358               3.1109       
        3189.167             29.0306               10.218       
        3236.766             31.7693               10.188       
        3263.694              32.234               10.172       
        3313.649             31.7769               10.145       
        3319.406             31.4036               10.142       
        3326.97              30.1956               10.138       
        3346.952             32.3154               13.662       
        3396.906             34.5954               13.509       
        3532.214             36.9631               12.986       
        3548.445             37.0718               12.905       
        3586.279             36.9573               12.71        
        3600.696               36.2                12.634       
        3622.322              37.409               14.377       
        3676.386             38.8586               14.066       
        3793.288             40.5122               13.384       
        4055.024             42.5804               11.932       
        4334.821             43.7716               10.633       
        4633.924             44.5459               9.5222       
        4953.664             45.0808               8.5451       
        5295.467             45.4549               7.6856       
        5660.855             45.7234               6.923        
        6051.453             45.9179               6.2398       
        6469.004             46.1414               5.6154       
        6915.365             46.2653               5.0297       
        7392.525             46.3334               4.5015       
        7902.609             46.3307               4.0278       
        8447.89              46.3063               3.6074       
        9030.794             46.2851               3.2259       
        9653.919             46.2264               2.8623       
        10320.04             46.1473               2.5411       
        11032.12             46.0568               2.2566       
        11793.34              45.959               2.0056       
        12607.08             45.8564               1.7844       
        13476.97             45.7502               1.5881       
        14406.88             45.6397               1.4114       
        15400.95             45.5209               1.2523       
        16463.62             45.3904               1.108        
        17599.61              45.241              0.98014       
        18813.98             45.0641              0.86786       
        20112.15             44.8392              0.76913       
        21499.88             44.5155              0.68225       
        22983.38             43.9078              0.60572       
        23863.29             43.0041              0.56667       
        24228.55             41.7152              0.55164       
        24325.95             40.1649              0.54775       
        24472.05             41.7399               3.5968       
        24569.23             42.3366               3.572        
        24837.31             43.1644               3.5051       
        26264.5              44.6043               3.1939       
        28076.76             45.2922               2.8664       
        30014.05             45.6821               2.5645       
        32085.02              45.933               2.2894       
        34298.89             46.0979               2.039        
        36665.51             46.2076               1.8163       
        39195.43             46.2804               1.6181       
        41899.92             46.3277               1.4416       
        44791.01             46.3569               1.2846       
        47881.59             46.3737               1.1447       
        51185.42             46.4139               1.0151       
        54717.21             46.4097              0.89866       
        58492.7              46.3988              0.79565       
        62528.7              46.3839              0.70451       
        66843.18             46.3663              0.62385       
        71455.36             46.3473              0.55241       
        76385.78             46.3277              0.48916       
        81656.4              46.3082              0.43235       
        87290.69              46.288              0.38101       
        93313.74             46.2677              0.33579       
        99752.39             46.2479              0.29595       
        106635.3             46.2288               0.2608       
        113993.1             46.2106              0.22958       
        121858.7             46.1933              0.20211       
        130266.9              46.177              0.17794       
        139255.3             46.1617              0.15666       
        148864.0             46.1475              0.13794       
        159135.6             46.1343              0.12146       
        170115.9             46.1221              0.10695       
        181853.9             46.1109              0.094185      
        194401.8             46.1005              0.082944      
        207815.6             46.0911              0.073048      
        222154.8             46.0824              0.064336      
        237483.5             46.0745              0.056665      
        253869.9             46.0673              0.049911      
        271386.9             46.0607              0.043964      
        290112.6             46.0548              0.038726      
        310130.4             46.0494              0.034114      
        331529.4             46.0445              0.030053      
        354404.9              46.04               0.026475      
        378858.8              46.036              0.023325      
        405000.1             46.0323              0.02055       
        432945.1             46.0291              0.018106      
