# Rb
# Form Factors from Chantler Tables
# DOI: https://dx.doi.org/10.18434/T4HS32
# automatically retrived 2019-02-28 using URL https://physics.nist.gov/cgi-bin/ffast/ffast.pl

# For f_rel the second term, which is 3/5th of the Cromer-Liberman value, is used as suggested by Chantler.
# Real and imaginary part of the formfactors are: f'(E)=f1(E)+f_rel+f_NT and f''(E)=f2(E)
# see also original publication:  https://doi.org/10.1063/1.555974

# Z = 37
# f_rel = -0.1584 e/atom  (Relativistic correction estimate)
# f_NT = -0.008787 e/atom (Nuclear Thomson correction)


#        E (eV)            f1 (e/atom)          f2 (e/atom)     
         10.69               10.6052                0.0         
        11.42761             10.6015                0.0         
        12.21612             10.5972                0.0         
        13.05903             10.5923                0.0         
        13.9601              10.5867                0.0         
        14.92335             10.5803                0.0         
        15.95306              10.573                0.0         
        17.05382             10.5646                0.0         
        18.23053              10.555                0.0         
        19.48844              10.544                0.0         
        20.83314             10.5314                0.0         
        22.27063              10.517                0.0         
        23.8073              10.5004                0.0         
        25.45001             10.4814                0.0         
        27.20606             10.4596                0.0         
        29.08327             10.4345                0.0         
        31.09002             10.4057                0.0         
        33.23523             10.3726                0.0         
        35.52846             10.3345                0.0         
        37.97993             10.2905                0.0         
        40.60054             10.2397                0.0         
        43.40198             10.1809                0.0         
        46.39671             10.1128                0.0         
        49.59809             10.0337                0.0         
        53.02035             9.94164                0.0         
        56.67876             9.83403                0.0         
        60.58959             9.70781                0.0         
        64.77028             9.55905                0.0         
        69.23942             9.38267                0.0         
        74.01695             9.17195                0.0         
        79.12411             8.91774                0.0         
        84.58368             8.60695                0.0         
        90.41995             8.21972                0.0         
        96.65893             7.72246                0.0         
        103.3284             7.04466                0.0         
        108.094              6.36832                0.0         
        109.564              6.05004                0.0         
        109.7485              5.9943                0.0         
        110.1897             5.78032                0.0         
        110.4581             5.75275              0.25914       
        110.8515             5.77037               0.2697       
        111.241              5.72118              0.28054       
        111.6882             5.58945              0.29347       
        112.359              5.59619              0.49693       
        112.506              5.59062              0.50427       
        114.036              5.45079              0.58678       
        118.0797             4.91265              0.86744       
        126.2272             3.69986               1.7961       
        134.9368             2.56355               3.2757       
        144.2475             1.74687               5.2741       
        154.2005             1.46669               7.6481       
        164.8404             1.84424               10.163       
        176.2144             2.87535               12.561       
        188.3732             4.44382               14.622       
        201.3709             6.35797               16.204       
        215.2655             8.37821               17.252       
        230.1188              10.133               17.78        
         233.73              10.3741               17.834       
        237.3075             10.2407               17.863       
        238.2615             9.69342               17.867       
        239.6925             10.4916               19.152       
        242.452              11.2475               19.176       
         243.27              11.3947               19.181       
        245.997              11.7264               19.19        
        246.163              11.7335               19.19        
        247.1526             11.6209               19.191       
        248.637              12.1407               19.742       
        252.348              12.9482               19.744       
        262.9708              14.581               19.673       
        281.1158             16.7594               19.343       
        300.5128             18.5648               18.795       
        315.658              19.5375               18.287       
        320.4895             19.5433               18.117       
        321.2482             19.4315               18.09        
        321.7779             19.2133               18.071       
        323.7105             19.7819               18.835       
        328.542              20.4946               18.663       
        343.4143             21.7872               18.124       
        367.1099             23.2924               17.264       
        392.4405             24.5443               16.369       
        419.5189             25.6094               15.46        
        448.4657             26.5213               14.553       
        479.4098             27.3013               13.654       
        512.4891             27.9617               12.771       
        547.8508             28.5146               11.912       
        585.6525             28.9716               11.084       
        626.0625              29.343               10.291       
        669.2609             29.6376               9.5364       
        715.4399             29.8635               8.8212       
        764.8052             30.0328               8.1467       
        817.5768             30.1412               7.5128       
        873.9896             30.1985               6.9191       
        934.2948             30.2095               6.3649       
        998.7612             30.1813               5.8487       
        1067.676             30.0924               5.2591       
        1141.345             29.8858               4.7337       
        1220.098             29.5799               4.267        
        1304.285             29.1656               3.8509       
        1394.281             28.6048               3.4763       
        1490.486             27.8159               3.1425       
        1593.329             26.6003               2.8447       
        1703.269             24.2705               2.5786       
        1768.312             20.9998               2.4416       
        1795.378             16.7689               2.3885       
        1802.596             12.0146               2.3747       
        1813.422             16.5024               11.451       
        1820.795             18.1208               11.348       
        1826.622              18.868               11.268       
        1840.488             19.7523               11.081       
        1854.58              19.5105               10.895       
        1862.036             17.6613               10.798       
        1873.219             20.5312               15.142       
        1901.178             23.6161               14.663       
        1946.43              25.8435               14.007       
        2023.798             27.5287               13.09        
        2054.774             27.3506               12.769       
        2063.035              26.531               12.687       
        2075.425             27.7221               14.48        
        2080.733              28.072               14.424       
        2106.402             29.0967               14.161       
        2224.304             31.4076               13.092       
        2377.781             33.1215               11.929       
        2541.848             34.3107               10.816       
        2717.235             35.1644               9.7911       
        2904.724             35.7995               8.8531       
        3105.15              36.2964               7.9746       
        3319.406              36.615               7.1601       
        3548.445             36.8409               6.4342       
        3793.288             37.1467               5.7579       
        4055.024             37.2307               5.1392       
        4334.821             37.3083               4.5792       
        4633.924             37.3012               4.0776       
        4953.664             37.2647               3.6308       
        5295.467             37.2079               3.2358       
        5660.855             37.1377               2.8864       
        6051.453             37.0586               2.577        
        6469.004             36.9737               2.3017       
        6915.365             36.8848               2.0576       
        7392.525             36.7938               1.8411       
        7902.609             36.7023               1.648        
        8447.89              36.6083               1.4703       
        9030.794             36.5147               1.3082       
        9653.919             36.4009               1.1491       
        10320.04             36.2685               1.0103       
        11032.12             36.1154              0.88918       
        11793.34             35.9319              0.78333       
        12607.08             35.6954              0.69075       
        13476.97             35.3489               0.6097       
        14406.88             34.6753              0.53867       
        14895.71             33.7901               0.5065       
        15123.7               32.428              0.49254       
        15184.5              30.7845              0.48892       
        15275.7              32.4638               3.7245       
        15400.95             33.5245               3.6643       
        15503.69              33.982               3.6159       
        16463.62             35.5543               3.2333       
        17599.61             36.2184               2.8978       
        18813.98              36.605               2.6097       
        20112.15             36.8702               2.3484       
        21499.88              37.052               2.1007       
        22983.38             37.1762               1.8765       
        24569.23             37.2613               1.6749       
        26264.5              37.3198               1.4947       
        28076.76             37.3592               1.3296       
        30014.05             37.3806               1.1815       
        32085.02             37.4248               1.0446       
        34298.89             37.4215              0.92254       
        36665.51              37.411              0.81482       
        39195.43             37.3958               0.7197       
        41899.92             37.3776              0.63565       
        44791.01             37.3576              0.56136       
        47881.59             37.3367              0.49552       
        51185.42             37.3153              0.43743       
        54717.21             37.2942              0.38618       
        58492.7              37.2736              0.34095       
        62528.7              37.2538              0.30104       
        66843.18             37.2352              0.26552       
        71455.36             37.2171              0.23329       
        76385.78             37.1997              0.20497       
        81656.4              37.1841              0.17991       
        87290.69             37.1686              0.15755       
        93313.74             37.1539              0.13798       
        99752.39             37.1401              0.12084       
        106635.3             37.1273              0.10583       
        113993.1             37.1155              0.092695      
        121858.7             37.1046              0.081191      
        130266.9             37.0947              0.071118      
        139255.3             37.0855              0.062296      
        148864.0             37.0772              0.054571      
        159135.6             37.0696              0.047806      
        170115.9             37.0627              0.041881      
        181853.9             37.0565              0.036691      
        194401.8             37.0508              0.032146      
        207815.6             37.0456              0.028164      
        222154.8              37.041              0.024677      
        237483.5             37.0368              0.021622      
        253869.9              37.033              0.018946      
        271386.9             37.0296              0.016601      
        290112.6             37.0265              0.014547      
        310130.4             37.0237              0.012748      
        331529.4             37.0212              0.011171      
        354404.9              37.019             0.0097899      
        378858.8              37.017             0.0085796      
        405000.1             37.0152             0.0075192      
        432945.1             37.0135              0.00659       
