# Rh
# Form Factors from Chantler Tables
# DOI: https://dx.doi.org/10.18434/T4HS32
# automatically retrived 2019-02-28 using URL https://physics.nist.gov/cgi-bin/ffast/ffast.pl

# For f_rel the second term, which is 3/5th of the Cromer-Liberman value, is used as suggested by Chantler.
# Real and imaginary part of the formfactors are: f'(E)=f1(E)+f_rel+f_NT and f''(E)=f2(E)
# see also original publication:  https://doi.org/10.1063/1.555974

# Z = 45
# f_rel = -0.2544 e/atom  (Relativistic correction estimate)
# f_NT = -0.010795 e/atom (Nuclear Thomson correction)


#        E (eV)            f1 (e/atom)          f2 (e/atom)     
         10.69               1.89417               4.8055       
        11.42761             2.09662               5.1028       
        12.21612             2.32705               5.4019       
        13.05903             2.58575               5.6998       
        13.9601              2.87263               5.9931       
        14.92335             3.18714               6.2786       
        15.95306             3.52819               6.5531       
        17.05382             3.89415               6.8134       
        18.23053             4.28288               7.0566       
        19.48844             4.69173               7.2804       
        20.83314             5.11762               7.4824       
        22.27063              5.5571               7.6611       
        23.8073              6.00634               7.8152       
        25.45001             6.46121               7.9443       
        27.20606             6.91721               8.0481       
        29.08327             7.36933               8.127        
        31.09002             7.81174               8.1819       
        33.23523             8.23697               8.214        
        35.52846             8.63416               8.2249       
        37.97993             8.98459               8.2164       
        40.60054             9.24829               8.1907       
        43.40198             9.31015               8.1499       
        46.39671             8.53632               8.0962       
         46.942              8.00116               8.0857       
        47.6605              5.95081               8.0228       
        47.8521              3.21176               8.006        
        48.1395              6.39978               13.516       
         48.858              9.28778               13.044       
        49.59809             10.5693               12.595       
        53.02035             12.9851               10.918       
        56.67876             13.8997               9.7195       
        60.58959              14.401               8.8533       
        64.77028              14.736               8.1819       
        69.23942             14.9838               7.6317       
        74.01695             15.1694               7.1613       
        79.12411             15.2714               6.7471       
         79.38               15.2708               6.7282       
         80.595              15.2279               6.6405       
         80.919               15.148               6.6177       
         81.405              15.2468               6.7567       
         82.62               15.3518               6.6791       
        84.58368             15.4415                6.56        
        90.41995             15.6159               6.2449       
        96.65893             15.7489               5.9577       
        103.3284             15.8551               5.6935       
        110.4581             15.9375               5.4491       
        118.0797             15.9967               5.2222       
        126.2272             16.0318               5.0111       
        134.9368             16.0413               4.8142       
        144.2475              16.017               4.6301       
        154.2005             15.9658               4.4576       
        164.8404             15.8769               4.2954       
        176.2144             15.7426               4.1424       
        188.3732             15.5526               3.9976       
        201.3709             15.2919               3.8596       
        215.2655             14.9381               3.7268       
        230.1188             14.4564               3.5984       
        245.997              13.7917               3.4736       
        262.9708             12.8315               3.3517       
        281.1158             11.3237               3.2323       
        300.5128             8.15945               3.1149       
         300.86              8.05768               3.1128       
        305.466              5.95237               3.0864       
        306.693              4.17242               3.0794       
        308.535              5.06359               6.0229       
        310.1415             5.04698               6.1078       
        311.3883             4.14952               6.1755       
        313.2585             5.23483               8.3433       
        317.934              6.10712               8.8068       
        321.2482             6.30213               9.158        
        343.4143             6.53387               12.03        
        367.1099              7.463                15.371       
        392.4405             9.35507               18.361       
        419.5189             11.9079               20.619       
        448.4657             14.6475               21.977       
        479.4098             16.7922               22.452       
        486.276              16.9162               22.452       
        493.719              16.2427               22.416       
        495.7038             14.8958               22.401       
        498.681               16.622               25.308       
        506.124              18.4232               25.227       
         510.58               19.015               25.166       
        512.4891             19.2134               25.137       
        518.395              19.5194               25.037       
        520.479               19.125               24.998       
        523.605              20.1348               26.203       
         531.42              21.5333               26.042       
        547.8508             23.4547               25.646       
        585.6525             26.5544               24.527       
        614.558              28.0923               23.568       
        623.9645             28.1885               23.249       
        626.0625              27.947               23.177       
        626.4729             27.8066               23.163       
        630.2355             28.5331               24.053       
        639.642              29.4719               23.731       
        669.2609             31.2211               22.73        
        715.4399             33.1285               21.237       
        764.8052             34.6156               19.768       
        817.5768             35.8079               18.361       
        873.9896             36.7848               17.016       
        934.2948             37.5849               15.729       
        998.7612             38.2442               14.525       
        1067.676             38.7727               13.315       
        1141.345             39.1539               12.186       
        1220.098             39.4325               11.14        
        1304.285             39.6085               10.098       
        1394.281             39.6637               9.1498       
        1490.486             39.6411               8.3038       
        1593.329             39.5546               7.5479       
        1703.269             39.4114               6.8721       
        1820.795             39.2194               6.2674       
        1946.43              38.9783               5.7258       
        2080.733             38.6746               5.2173       
        2224.304             38.2656               4.7367       
        2377.781             37.7071               4.3058       
        2541.848              36.909               3.918        
        2717.235             35.6223               3.5657       
        2904.724             32.7378               3.2488       
        2943.724             31.4079               3.1893       
        2988.781             27.8447               3.1231       
        3000.796             23.8203               3.1056       
        3018.819             27.6279               10.824       
        3063.876             30.7009               10.604       
        3083.178             31.1221               10.512       
        3105.15              31.2624               10.409       
        3130.37              30.7066               10.293       
        3142.954              28.999               10.236       
        3161.831             31.2954               13.993       
        3209.022             33.7259               13.691       
        3319.406             35.9162               13.008       
        3343.662             36.1407               12.857       
        3394.841             36.0599               12.545       
        3408.488             35.2798               12.463       
        3428.96              36.4699               14.209       
        3480.138              37.865               13.89        
        3548.445             38.9158               13.477       
        3793.288             41.1094               12.138       
        4055.024             42.4388               10.918       
        4334.821             43.3289               9.8125       
        4633.924              43.95                8.8157       
        4953.664             44.3826               7.9204       
        5295.467             44.6862               7.1193       
        5660.855             44.8983               6.402        
        6051.453              45.13                5.7551       
        6469.004              45.261               5.1523       
        6915.365             45.3329               4.6094       
        7392.525             45.3324               4.1209       
        7902.609             45.3055               3.6875       
        8447.89              45.2629               3.3029       
        9030.794             45.2202               2.954        
        9653.919             45.1573               2.6207       
        10320.04             45.0732               2.3256       
        11032.12             44.9788               2.0656       
        11793.34             44.8783               1.8364       
        12607.08             44.7736               1.6333       
        13476.97             44.6648               1.4515       
        14406.88             44.5483               1.2873       
        15400.95             44.4213               1.1391       
        16463.62             44.2772               1.0071       
        17599.61             44.1089              0.89111       
        18813.98             43.9001              0.78923       
        20112.15             43.6125              0.69962       
        21499.88             43.1259              0.62075       
        22755.5              41.9842              0.56105       
        22983.38             41.3616              0.55121       
        23103.8              40.6879              0.54612       
        23196.68             39.1279              0.54225       
        23336.0              40.7147               3.6109       
        23684.3              42.1495               3.5161       
        24569.23             43.2772               3.2962       
        26264.5              44.1227               2.9629       
        28076.76             44.5784               2.6567       
        30014.05             44.8642               2.3762       
        32085.02             45.0536               2.1169       
        34298.89             45.1785               1.8854       
        36665.51             45.2617               1.6795       
        39195.43             45.3162               1.4962       
        41899.92             45.3506               1.3331       
        44791.01             45.3709               1.1878       
        47881.59             45.4151               1.0551       
        51185.42             45.4136               0.9337       
        54717.21             45.4044              0.82632       
        58492.7              45.3903              0.73135       
        62528.7              45.3732              0.64735       
        66843.18             45.3543              0.57299       
        71455.36             45.3345              0.50717       
        76385.78             45.3146              0.44872       
        81656.4              45.2951              0.39644       
        87290.69             45.2749              0.34922       
        93313.74             45.2549              0.30765       
        99752.39             45.2356              0.27104       
        106635.3             45.2171              0.23849       
        113993.1             45.1994              0.20982       
        121858.7             45.1827              0.18461       
        130266.9              45.167              0.16243       
        139255.3             45.1524              0.14293       
        148864.0             45.1388              0.12577       
        159135.6             45.1262              0.11068       
        170115.9             45.1146              0.097405      
        181853.9             45.1039              0.085725      
        194401.8             45.0942              0.07545       
        207815.6             45.0852              0.066408      
        222154.8             45.0771              0.058453      
        237483.5             45.0696              0.051453      
        253869.9             45.0628              0.045293      
        271386.9             45.0566              0.039872      
        290112.6              45.051              0.035101      
        310130.4              45.046              0.030902      
        331529.4             45.0414              0.027206      
        354404.9             45.0372              0.023953      
        378858.8             45.0334              0.02109       
        405000.1              45.03               0.01857       
        432945.1              45.027              0.016351      
