# S
# Form Factors from Chantler Tables
# DOI: https://dx.doi.org/10.18434/T4HS32
# automatically retrived 2019-02-27 using URL https://physics.nist.gov/cgi-bin/ffast/ffast.pl
#
# Z = 16
# f_rel = -0.035338 e/atom  (Relativistic correction estimate)
# f_NT = -0.0043804 e/atom (Nuclear Thomson correction)


#        E (eV)            f1 (e/atom)          f2 (e/atom)     
        7.58018              -3.48343               0.0         
        7.657359             -4.26512               0.0         
        7.696204             -4.91639               0.0         
        7.727143             -6.07961               0.0         
        7.774563             -5.80548              1.7889       
        7.805818             -6.49112              1.836        
         7.8527              -5.51019              3.6918       
        7.889576             -5.10778              3.8061       
        7.969904             -4.6885               4.0655       
         10.69               4.85407               10.046       
        11.42761             7.02455               8.6428       
        12.21612              8.2926               6.8704       
        13.05903             8.79689               5.1618       
        13.9601              8.78922               3.7368       
        14.92335             8.50205               2.6492       
        15.95306             8.09906               1.8642       
        17.05382              7.6761               1.3165       
        17.33447             7.57568               1.211        
        17.59979             7.48403               1.1213       
        17.67054             7.46005               1.0989       
        17.77667             7.42486               1.0667       
        18.04199             7.33908              0.99108       
        18.23053             7.28016              0.94176       
        19.48844             6.92902              0.68765       
        20.83314             6.62473              0.51689       
        22.27063             6.36305              0.40433       
        23.8073              6.13733              0.33392       
        25.45001             5.94417              0.29544       
        27.20606             5.77933              0.28174       
        29.08327             5.64047              0.28698       
        31.09002             5.52557               0.3057       
        33.23523             5.43223              0.33304       
        35.52846             5.35763              0.36459       
        37.97993             5.29818              0.39668       
        40.60054             5.24989              0.42687       
        43.40198             5.20867              0.45409       
        46.39671             5.17122              0.47795       
        49.59809             5.13443              0.49862       
        53.02035             5.09561               0.5168       
        56.67876             5.05383              0.53333       
        60.58959             5.00445              0.54903       
        64.77028             4.94551              0.56524       
        69.23942             4.87744              0.58227       
        74.01695              4.7972              0.60028       
        79.12411             4.70176              0.61932       
        84.58368             4.58711              0.63925       
        90.41995             4.44776              0.65975       
        96.65893             4.27591              0.68034       
        103.3284             4.06018              0.70045       
        110.4581             3.78344               0.7195       
        118.0797             3.41854              0.73688       
        126.2272             2.91916              0.75205       
        134.9368             2.19699              0.76456       
        144.2475             1.05025              0.77408       
        154.2005             -1.18249             0.76165       
        161.504              -5.49062             0.74766       
        163.976              -10.8763             0.74264       
        164.6352             -17.2556             0.74128       
        164.8404             -22.8517              13.291       
        165.624              -10.7387              13.261       
        168.096              -5.05078              13.165       
        176.2144             0.268651              12.863       
        188.3732             3.57484               12.429       
        201.3709             5.64507               11.923       
        215.2655             7.05788               11.353       
        224.616              7.51754               10.965       
        228.054               7.2736               10.822       
        228.9708             6.72984               10.784       
        230.1188             7.35124               11.942       
        230.346               7.4535               11.933       
        233.784              8.24499               11.797       
        245.997              9.56827               11.322       
        262.9708             10.7717               10.685       
        281.1158             11.7286               10.032       
        300.5128              12.515               9.3747       
        321.2482             13.1657               8.7232       
        343.4143             13.7032               8.0847       
        367.1099             14.1439               7.466        
        392.4405             14.5017               6.8727       
        419.5189             14.7886               6.3084       
        448.4657             15.0149               5.7755       
        479.4098             15.1896               5.2754       
        512.4891             15.3221               4.8084       
        547.8508             15.4165               4.3745       
        585.6525             15.4802               3.9729       
        626.0625             15.5185               3.6027       
        669.2609             15.5359               3.2623       
        715.4399             15.5359               2.9496       
        764.8052             15.5214               2.6633       
        817.5768             15.4951               2.4023       
        873.9896              15.46                2.1653       
        934.2948             15.4191               1.9505       
        998.7612              15.377               1.7565       
        1067.676             15.3185               1.5563       
        1141.345             15.2465               1.3799       
        1220.098             15.1657               1.2248       
        1304.285             15.0779               1.0883       
        1394.281             14.9834              0.96802       
        1490.486             14.8807              0.86197       
        1593.329             14.7671              0.76836       
        1703.269             14.6378              0.68566       
        1820.795             14.4842              0.61253       
        1946.43              14.2907              0.54778       
        2080.733             14.0245              0.49041       
        2224.304             13.5997              0.43951       
        2377.781             12.6322              0.39431       
        2422.56              11.9404              0.38259       
        2459.64              10.3757              0.37333       
        2469.528             8.49659              0.37093       
        2484.36              10.3922                4.07        
        2521.44              12.1135               3.9926       
        2541.848             12.5569               3.9512       
        2717.235             14.2376               3.5845       
        2904.724             14.9741               3.2216       
        3105.15              15.4198               2.8955       
        3319.406             15.7231               2.5973       
        3548.445             15.9311               2.3237       
        3793.288             16.0769               2.0792       
        4055.024             16.1802               1.8606       
        4334.821             16.2533               1.665        
        4633.924             16.3047               1.4893       
        4953.664              16.385               1.3318       
        5295.467             16.4057               1.1801       
        5660.855             16.4117               1.0457       
        6051.453             16.4086               0.9267       
        6469.004             16.3993              0.82127       
        6915.365             16.3859              0.72786       
        7392.525             16.3698              0.64511       
        7902.609             16.3522               0.5718       
        8447.89              16.3342              0.50681       
        9030.794              16.318              0.44855       
        9653.919             16.2986              0.39488       
        10320.04             16.2792              0.34764       
        11032.12             16.2603              0.30521       
        11793.34             16.2413              0.26702       
        12607.08             16.2226              0.23361       
        13476.97             16.2045              0.20439       
        14406.88             16.1874              0.17883       
        15400.95             16.1713              0.15647       
        16463.62             16.1562              0.13691       
        17599.61             16.1422               0.1198       
        18813.98             16.1293              0.10483       
        20112.15             16.1174              0.091735      
        21499.88             16.1064              0.080275      
        22983.38             16.0964              0.070249      
        24569.23             16.0873              0.061476      
        26264.5               16.079               0.0538       
        28076.76             16.0715              0.046793      
        30014.05             16.0645              0.040617      
        32085.02             16.0581              0.035256      
        34298.89             16.0523              0.030603      
        36665.51              16.047              0.026565      
        39195.43             16.0421              0.02306       
        41899.92             16.0378              0.020017      
        44791.01             16.0338              0.017377      
        47881.59             16.0303              0.015084      
        51185.42             16.0271              0.013095      
        54717.21             16.0242              0.011346      
        58492.7              16.0216             0.0098178      
        62528.7              16.0193             0.0084952      
        66843.18             16.0172             0.0073509      
        71455.36             16.0153             0.0063607      
        76385.78             16.0137              0.005504      
        81656.4              16.0122             0.0047619      
        87290.69             16.0108             0.0041184      
        93313.74             16.0096             0.0035618      
        99752.39             16.0086             0.0030804      
        106635.3             16.0076             0.0026642      
        113993.1             16.0067             0.0023041      
        121858.7              16.006             0.0019928      
        130266.9             16.0053             0.0017235      
        139255.3             16.0047             0.0014906      
        148864.0             16.0042             0.0012892      
        159135.6             16.0037              0.001115      
        170115.9             16.0033             0.00096437     
        181853.9             16.0029             0.00083407     
        194401.8             16.0026             0.00072139     
        207815.6             16.0023             0.00062393     
        222154.8              16.002             0.00053963     
        237483.5             16.0018             0.00046673     
        253869.9             16.0016             0.00040368     
        271386.9             16.0014             0.00034915     
        290112.6             16.0012             0.00030198     
        310130.4             16.0011             0.00026119     
        331529.4              16.001             0.00022591     
        354404.9             16.0009             0.00019539     
        378858.8             16.0008              0.000169      
        405000.1             16.0007             0.00014617     
        432945.1             16.0006             0.00012643     
