# Sc
# Form Factors from Chantler Tables
# DOI: https://dx.doi.org/10.18434/T4HS32
# automatically retrived 2019-02-27 using URL https://physics.nist.gov/cgi-bin/ffast/ffast.pl
#
# Z = 21
# f_rel = -0.065705 e/atom  (Relativistic correction estimate)
# f_NT = -0.0053814 e/atom (Nuclear Thomson correction)


#        E (eV)            f1 (e/atom)          f2 (e/atom)     
         10.69               8.43172                0.0         
        11.42761              8.4201                0.0         
        12.21612             8.40652                0.0         
        13.05903             8.39057                0.0         
        13.9601              8.37174                0.0         
        14.92335             8.34938                0.0         
        15.95306             8.32265                0.0         
        17.05382              8.2904                0.0         
        18.23053             8.25104                0.0         
        19.48844             8.20232                0.0         
        20.83314             8.14085                0.0         
        22.27063             8.06127                0.0         
        23.8073              7.95448                0.0         
        25.45001             7.80327                0.0         
        27.20606             7.56991                0.0         
        29.08327             7.14726                0.0         
        31.09002             5.98986                0.0         
         31.654              5.06744                0.0         
        32.1385              2.64257                0.0         
        32.2677             -0.572539               0.0         
        32.4615              3.30677               6.4655       
         32.946              6.66886               5.649        
        33.23523             7.54411               5.2166       
        35.52846             9.63779               2.8403       
        37.97993             9.68356               1.6748       
        40.60054             9.47617               1.1417       
        43.40198             9.26018              0.87736       
        46.39671             9.06182              0.74331       
        49.59809             8.86608              0.68109       
         52.724              8.62098              0.66398       
        53.02035             8.58033              0.66389       
         53.531              8.46296              0.66425       
        53.7462              8.30602              0.66459       
         54.069              8.44091              0.95669       
         54.876              8.54012              0.96596       
        56.67876             8.57621              0.99135       
        60.58959             8.56318               1.0641       
        64.77028             8.53831               1.158        
        69.23942             8.52042               1.2694       
        74.01695             8.51531               1.3961       
        79.12411             8.52654               1.5357       
        84.58368             8.55692               1.6854       
        90.41995             8.60871               1.8415       
        96.65893             8.68337               1.9997       
        103.3284             8.77778               2.155        
        110.4581             8.89838               2.3021       
        118.0797              9.0395               2.4359       
        126.2272             9.19793               2.5515       
        134.9368             9.36968               2.644        
        144.2475             9.54736               2.7074       
        154.2005             9.72191               2.7405       
        164.8404             9.88537               2.7441       
        176.2144             10.0286               2.7203       
        188.3732             10.1445               2.6722       
        201.3709             10.2257               2.6035       
        215.2655             10.2646               2.5182       
        230.1188             10.2526                2.42        
        245.997              10.1788               2.3126       
        262.9708             10.0285               2.1994       
        281.1158             9.77881               2.0831       
        300.5128             9.39216               1.9662       
        321.2482             8.79907               1.8506       
        343.4143             7.85136               1.7377       
        367.1099             6.14027               1.6287       
        392.4405             1.46616               1.5241       
        394.156              0.748834              1.5175       
        398.566              -2.14125              1.5006       
        400.189              -4.20296              1.4944       
        401.7978             -9.45344              1.4884       
        404.211              -5.39644              11.021       
        404.6665             -5.0526               11.006       
        406.2933             -5.85041              10.953       
        408.7335             -1.85144              15.603       
        410.244             -0.308777              15.533       
        414.834              2.49519               15.325       
        419.5189             4.28326               15.117       
        448.4657             9.51097               13.937       
        479.4098             11.8389               12.824       
        490.392              12.1697               12.458       
        497.898               11.892               12.216       
        499.8996             11.1773               12.152       
        502.902              12.1617               13.665       
        510.408              13.2441               13.427       
        512.4891             13.4384               13.362       
        547.8508             15.5039               12.329       
        585.6525             16.8387               11.35        
        626.0625             17.8352               10.419       
        669.2609             18.6004               9.5373       
        715.4399             19.1936               8.7119       
        764.8052             19.6541               7.9434       
        817.5768             20.0108               7.2315       
        873.9896             20.2868               6.5712       
        934.2948             20.4928               5.9594       
        998.7612             20.6451               5.3984       
        1067.676             20.7586               4.8649       
        1141.345             20.8218               4.378        
        1220.098             20.8494               3.936        
        1304.285             20.8499               3.5362       
        1394.281             20.8295               3.1759       
        1490.486             20.7942               2.852        
        1593.329             20.7506               2.5615       
        1703.269             20.6959               2.2906       
        1820.795             20.6294               2.0483       
        1946.43              20.5567               1.8338       
        2080.733              20.48                1.6391       
        2224.304             20.3965               1.4635       
        2377.781             20.3074               1.308        
        2541.848             20.2132               1.1701       
        2717.235             20.1132               1.0477       
        2904.724             20.0074              0.93904       
        3105.15              19.8896              0.83405       
        3319.406             19.7362              0.73458       
        3548.445             19.5416               0.6476       
        3793.288             19.2752              0.57147       
        4055.024              18.852              0.50478       
        4334.821              17.87               0.44631       
        4402.944             17.2904              0.43371       
        4470.336             15.7929               0.4218       
        4488.307             13.9862              0.41871       
        4515.264             15.8273               3.9769       
        4582.656             17.4949               3.8694       
        4633.924             18.0517               3.7907       
        4953.664             19.4991               3.3816       
        5295.467             20.1389               3.0409       
        5660.855             20.5351               2.742        
        6051.453              20.813               2.4648       
        6469.004             21.0038               2.2063       
        6915.365             21.1368               1.9727       
        7392.525             21.2296               1.7627       
        7902.609             21.2935               1.5741       
        8447.89              21.3369               1.4055       
        9030.794             21.4081               1.2534       
        9653.919             21.4223               1.1075       
        10320.04              21.423              0.97833       
        11032.12             21.4153              0.86426       
        11793.34             21.4022              0.76355       
        12607.08             21.3854              0.67462       
        13476.97             21.3664              0.59608       
        14406.88             21.3461              0.52672       
        15400.95             21.3254              0.46545       
        16463.62             21.3047              0.41134       
        17599.61             21.2844              0.36353       
        18813.98             21.2651              0.32129       
        20112.15             21.2467              0.28301       
        21499.88             21.2285               0.2484       
        22983.38             21.2108              0.21804       
        24569.23              21.194              0.19139       
        26264.5              21.1783               0.168        
        28076.76             21.1637              0.14661       
        30014.05             21.1496              0.12771       
        32085.02             21.1362              0.11124       
        34298.89             21.1237              0.096904      
        36665.51             21.1122              0.084416      
        39195.43             21.1015              0.073539      
        41899.92             21.0917              0.064065      
        44791.01             21.0827              0.055812      
        47881.59             21.0746              0.048624      
        51185.42             21.0671              0.042363      
        54717.21             21.0604              0.036908      
        58492.7              21.0543              0.032157      
        62528.7              21.0487              0.028018      
        66843.18             21.0437              0.024411      
        71455.36             21.0392              0.02127       
        76385.78             21.0351              0.018533      
        81656.4              21.0315              0.016131      
        87290.69             21.0282              0.014007      
        93313.74             21.0252              0.012162      
        99752.39             21.0225              0.010561      
        106635.3             21.0201             0.0091701      
        113993.1             21.0179             0.0079628      
        121858.7              21.016             0.0069145      
        130266.9             21.0143             0.0060043      
        139255.3             21.0127              0.005214      
        148864.0             21.0113             0.0045277      
        159135.6             21.0101             0.0039318      
        170115.9              21.009             0.0034143      
        181853.9              21.008              0.002965      
        194401.8             21.0071             0.0025748      
        207815.6             21.0063              0.002236      
        222154.8             21.0056             0.0019418      
        237483.5              21.005             0.0016863      
        253869.9             21.0044             0.0014645      
        271386.9             21.0039             0.0012718      
        290112.6             21.0035             0.0011045      
        310130.4             21.0031             0.00095918     
        331529.4             21.0027              0.000833      
        354404.9             21.0024             0.00072343     
        378858.8             21.0021             0.00062827     
        405000.1             21.0019             0.00054563     
        432945.1             21.0017             0.00047387     
