# Si
# Form Factors from Chantler Tables
# DOI: https://dx.doi.org/10.18434/T4HS32
# automatically retrived 2019-02-27 using URL https://physics.nist.gov/cgi-bin/ffast/ffast.pl
#
# Z = 14
# f_rel = -0.026197 e/atom  (Relativistic correction estimate)
# f_NT = -0.0038284 e/atom (Nuclear Thomson correction)


#        E (eV)            f1 (e/atom)          f2 (e/atom)     
        4.981393             0.550431               0.0         
        5.057639            -0.320849               0.0         
        5.077971             -1.28029               0.0         
        5.108469            -0.407656              1.8433       
        5.184715             0.319503              1.9476       
         10.69               4.49043              0.49472       
        11.13003             4.41607              0.40981       
        11.30038             4.38482              0.38216       
        11.34581             4.37198              0.37522       
        11.41396             4.36769              0.37687       
        11.42761             4.36646              0.37492       
        11.58431             4.34801               0.3536       
        12.21612             4.26861              0.28398       
        13.05903             4.17557              0.22096       
        13.9601              4.09293              0.17788       
        14.92335             4.02013               0.149        
        15.95306             3.95663              0.13038       
        17.05382             3.89925              0.11936       
        18.23053             3.84744              0.11415       
        19.48844             3.79998              0.11354       
        20.83314             3.75582              0.11673       
        22.27063             3.71414              0.12324       
        23.8073              3.67429              0.13259       
        25.45001             3.63561              0.14434       
        27.20606             3.59745              0.15811       
        29.08327             3.55913              0.17351       
        31.09002             3.51987              0.19016       
        33.23523             3.47876              0.20768       
        35.52846             3.43487              0.22566       
        37.97993             3.38651              0.24374       
        40.60054             3.33221              0.26154       
        43.40198             3.26991              0.27876       
        46.39671             3.19712              0.29508       
        49.59809             3.11054              0.31003       
        53.02035             3.00579              0.32339       
        56.67876             2.87721              0.33506       
        60.58959             2.71713              0.34502       
        64.77028             2.51474              0.35326       
        69.23942              2.2539              0.35981       
        74.01695              1.9088              0.36472       
        79.12411             1.43406              0.36805       
        84.58368             0.737405             0.36987       
        90.41995            -0.423197             0.37026       
        96.65893             -3.28171             0.36804       
         97.216              -3.84572             0.36732       
         98.704              -6.95115             0.36535       
        99.1008              -10.4791             0.36481       
         99.696              -7.07666              7.2061       
        101.184              -4.18129              7.3507       
        103.3284             -2.6747               7.5606       
        110.4581            -0.473104              8.2681       
        118.0797             1.02847               8.8713       
        126.2272             2.34527               9.2705       
        134.9368              3.5162               9.468        
        144.2475             4.39577                9.48        
        145.726              4.44809               9.467        
        147.9565             4.27331               9.4409       
        148.5513             3.83506               9.4327       
        149.4435             4.43854               10.408       
        151.674              5.11882               10.379       
        154.2005             5.58201               10.338       
        164.8404             6.95675               10.098       
        176.2144             8.06341               9.7527       
        188.3732              9.0093               9.3252       
        201.3709             9.82004               8.8416       
        215.2655             10.5105               8.3235       
        230.1188             11.0929               7.7878       
        245.997              11.5791               7.2498       
        262.9708             11.9807               6.7202       
        281.1158             12.3087               6.2068       
        300.5128             12.5735               5.715        
        321.2482             12.7839               5.2483       
        343.4143             12.9483               4.8086       
        367.1099             13.0739               4.3969       
        392.4405              13.167               4.0133       
        419.5189             13.2331               3.6568       
        448.4657             13.2758               3.3258       
        479.4098             13.2987                3.02        
        512.4891             13.3048               2.7385       
        547.8508             13.2972               2.4802       
        585.6525             13.2781               2.2438       
        626.0625             13.2495               2.028        
        669.2609              13.213               1.8311       
        715.4399             13.1695               1.6519       
        764.8052             13.1201               1.4894       
        817.5768             13.0654               1.3422       
        873.9896             13.0058               1.2092       
        934.2948             12.9418               1.0893       
        998.7612             12.8743              0.98137       
        1067.676             12.7932              0.87137       
        1141.345             12.6978               0.7742       
        1220.098             12.5861              0.68851       
        1304.285             12.4527              0.61287       
        1394.281             12.2868              0.54605       
        1490.486             12.0669              0.48696       
        1593.329             11.7442              0.43467       
        1703.269             11.1665              0.38835       
        1802.122             9.77316               0.3533       
        1820.795             8.96867              0.34728       
        1829.705             8.18207              0.34446       
        1837.061             6.28036              0.34216       
        1848.094             8.18045               4.0819       
        1875.678             9.90765               4.0304       
        1946.43               11.353               3.8896       
        2080.733             12.5086               3.5283       
        2224.304              13.132               3.1614       
        2377.781             13.5165               2.8224       
        2541.848              13.772               2.5325       
        2717.235             13.9567               2.2762       
        2904.724             14.0941               2.0459       
        3105.15              14.1991               1.8323       
        3319.406             14.2699               1.6363       
        3548.445             14.3185               1.4614       
        3793.288             14.3972               1.2999       
        4055.024             14.4122               1.1509       
        4334.821             14.4148               1.019        
        4633.924             14.4092              0.90223       
        4953.664              14.398               0.7989       
        5295.467              14.383              0.70743       
        5660.855             14.3657              0.62644       
        6051.453              14.347              0.55475       
        6469.004             14.3275              0.49128       
        6915.365              14.308              0.43509       
        7392.525              14.289              0.38534       
        7902.609             14.2709              0.34129       
        8447.89              14.2537              0.30059       
        9030.794             14.2373              0.26409       
        9653.919             14.2193               0.2306       
        10320.04             14.2018              0.20136       
        11032.12              14.185              0.17583       
        11793.34             14.1691              0.15354       
        12607.08             14.1542              0.13408       
        13476.97             14.1404              0.11709       
        14406.88             14.1275              0.10225       
        15400.95             14.1156              0.089301      
        16463.62             14.1047              0.07799       
        17599.61             14.0947              0.068113      
        18813.98             14.0856              0.059487      
        20112.15             14.0772              0.051955      
        21499.88             14.0696              0.045377      
        22983.38             14.0628              0.039633      
        24569.23             14.0566              0.034616      
        26264.5              14.0511              0.030235      
        28076.76             14.0462              0.026276      
        30014.05             14.0415              0.022797      
        32085.02             14.0372              0.019779      
        34298.89             14.0333              0.017161      
        36665.51             14.0298              0.01489       
        39195.43             14.0267              0.012919      
        41899.92             14.0239              0.01116       
        44791.01             14.0213              0.00964       
        47881.59             14.0191             0.0083272      
        51185.42              14.017             0.0071932      
        54717.21             14.0151             0.0062137      
        58492.7              14.0135             0.0053676      
        62528.7               14.012             0.0046367      
        66843.18             14.0107             0.0040054      
        71455.36             14.0095             0.0034605      
        76385.78             14.0084             0.0029899      
        81656.4              14.0075             0.0025832      
        87290.69             14.0066             0.0022319      
        93313.74             14.0059             0.0019284      
        99752.39             14.0052             0.0016662      
        106635.3             14.0046             0.0014396      
        113993.1             14.0041             0.0012438      
        121858.7             14.0036             0.0010747      
        130266.9             14.0032             0.00092859     
        139255.3             14.0029             0.00080234     
        148864.0             14.0025             0.00069326     
        159135.6             14.0022             0.00059902     
        170115.9              14.002             0.00051758     
        181853.9             14.0017             0.00044723     
        194401.8             14.0015             0.00038643     
        207815.6             14.0014             0.00033391     
        222154.8             14.0012             0.00028852     
        237483.5             14.0011             0.00024931     
        253869.9             14.0009             0.00021542     
        271386.9             14.0008             0.00018614     
        290112.6             14.0007             0.00016085     
        310130.4             14.0006             0.00013899     
        331529.4             14.0006             0.0001201      
        354404.9             14.0005             0.00010378     
        378858.8             14.0004             8.9678e-05     
        405000.1             14.0004             7.7492e-05     
        432945.1             14.0003             6.6963e-05     
