# Sn
# Form Factors from Chantler Tables
# DOI: https://dx.doi.org/10.18434/T4HS32
# automatically retrived 2019-02-27 using URL https://physics.nist.gov/cgi-bin/ffast/ffast.pl
#
# Z = 50
# f_rel = -0.53125 e/atom  (Relativistic correction estimate)
# f_NT = -0.011555 e/atom (Nuclear Thomson correction)


#        E (eV)            f1 (e/atom)          f2 (e/atom)     
         10.69               8.40533                0.0         
        11.42761              8.3166                0.0         
        12.21612             8.21206                0.0         
        13.05903             8.08822                0.0         
        13.9601              7.94054                0.0         
        14.92335             7.76297                0.0         
        15.95306             7.54725                0.0         
        17.05382              7.2816                0.0         
        18.23053             6.94848                0.0         
        19.48844             6.51984                0.0         
        20.83314             5.94558                0.0         
        22.27063             5.11472                0.0         
         23.422              4.07447                0.0         
        23.7805               3.4488                0.0         
        23.8073               3.3658                0.0         
        23.8761              2.99671                0.0         
        24.0195              3.16193              0.71303       
         24.378              3.07327               0.8622       
        25.45001             2.19506               1.4971       
        27.20606             0.654972              3.4165       
        29.08327            -0.153839              6.399        
        31.09002             0.364264              9.9099       
        33.23523             2.36543               13.138       
        35.52846             5.47285               15.366       
        37.97993             9.01769               16.277       
        40.60054             12.3644               15.966       
        43.40198             15.1082               14.784       
        46.39671             17.1028               13.132       
        49.59809              18.388               11.341       
        53.02035             19.0958               9.6305       
        56.67876              19.38                8.1137       
        60.58959             19.3766               6.8318       
        64.77028             19.1892               5.7821       
        69.23942             18.8876               4.9401       
        74.01695             18.5413               4.2744       
        79.12411             18.0845               3.7535       
        84.58368             17.4338               3.3495       
         86.828              16.9441               3.2177       
         88.157              16.1855               3.1474       
        88.5114              15.3182               3.1295       
         89.043              16.2085               4.7868       
        90.41995             16.9648               4.6507       
        96.65893             17.5538               4.138        
        103.3284             17.5484               3.7616       
        110.4581             17.4115               3.5187       
        118.0797             17.2315               3.3688       
        126.2272             17.0235               3.2869       
         133.77              16.7668               3.258        
        134.9368             16.6942               3.2565       
        135.8175             16.6008               3.2558       
        136.3635             16.4394               3.2556       
        137.1825             16.5757               3.5528       
         139.23              16.6725               3.5593       
        144.2475             16.6976               3.5821       
        154.2005             16.6565               3.6492       
        164.8404              16.602               3.7388       
        176.2144             16.5491               3.8437       
        188.3732             16.4986               3.9584       
        201.3709             16.4471               4.0778       
        215.2655             16.3884               4.1973       
        230.1188             16.3138               4.3123       
        245.997              16.2115               4.4188       
        262.9708             16.0658               4.5133       
        281.1158             15.8589               4.5924       
        300.5128              15.555               4.6539       
        321.2482             15.1156               4.6958       
        343.4143             14.4774               4.717        
        367.1099             13.5372               4.7169       
        392.4405             12.1052               4.6945       
        419.5189             9.77113               4.6509       
        448.4657             5.34162               4.5879       
        475.104              -5.3938               4.4758       
        479.4098             -10.0246              4.4569       
        482.376              -15.9897              4.4439       
        483.434              -20.0565              4.4393       
        484.3152             -27.1125              4.4354       
        487.224              -17.9385              24.794       
        490.8335             -15.5411              24.594       
        492.8067             -20.5115              24.486       
        494.496              -15.1896              38.081       
        495.7665             -11.0983              37.968       
        503.166              -1.09926              37.32        
        512.4891             5.02345               36.532       
        547.8508             16.0755               33.809       
        585.6525             21.7958               31.371       
        626.0625             25.4521               29.15        
        669.2609              27.698               27.071       
        700.112              27.9859               25.73        
        710.828              26.9092               25.288       
        713.6856             25.2636               25.173       
        715.4399             25.7353               28.519       
        717.972              27.1651               28.418       
        728.688              28.9963               27.994       
        741.272              29.9222               27.51        
        752.618               30.097               27.086       
        755.6436             29.5426               26.974       
        760.182              30.5673               28.271       
        764.8052             31.2055               28.106       
        771.528              31.8439               27.869       
        817.5768             34.4946               26.343       
        866.124               36.071               24.806       
        873.9896             36.1442               24.568       
        879.381              36.0506               24.407       
        882.9162             35.6078               24.302       
        888.219              36.3432               25.241       
        901.476              37.2414               24.857       
        934.2948             38.5344               23.947       
        998.7612              40.38                22.333       
        1067.676             41.7705               20.514       
        1141.345              42.795               18.831       
        1220.098             43.5956               17.281       
        1304.285             44.2078               15.808       
        1394.281             44.6469               14.442       
        1490.486             44.9678               13.197       
        1593.329             45.1804               12.054       
        1703.269             45.3112               11.01        
        1820.795             45.3763               10.055       
        1946.43              45.3928               9.1859       
        2080.733             45.3446               8.3312       
        2224.304             45.2231               7.5618       
        2377.781             45.0418               6.8741       
        2541.848             44.8028               6.2588       
        2717.235             44.5039               5.7068       
        2904.724              44.135               5.2058       
        3105.15              43.6444               4.6802       
        3319.406             42.8802               4.1619       
        3548.445             41.6355               3.7073       
        3793.288             38.9148               3.3031       
        3850.224             37.5113               3.2198       
        3909.156             34.0273               3.1372       
        3924.871             30.0304               3.1158       
        3948.444             33.9408               10.82        
        4007.376             37.1907               10.465       
        4055.024             37.9931               10.191       
        4072.978             38.1101               10.09        
        4135.319             37.3576               9.7618       
        4151.944             35.5879               9.6868       
        4176.88              37.8115               13.408       
        4239.222             40.0581               13.018       
        4334.821             41.4391               12.464       
        4375.406             41.7235               12.248       
        4442.377             41.6034               11.923       
        4460.236             40.8219               11.84        
        4487.024              41.974               13.561       
        4553.994             43.3023               13.25        
        4633.924             44.1919               12.901       
        4953.664             46.2573               11.694       
        5295.467             47.5557               10.597       
        5660.855             48.4498               9.5551       
        6051.453             49.0715               8.5908       
        6469.004               49.5                7.7135       
        6915.365             49.7938               6.9246       
        7392.525             49.9926               6.219        
        7902.609             50.2028               5.5891       
        8447.89              50.3272               5.0166       
        9030.794             50.4269               4.4908       
        9653.919             50.4277               3.9815       
        10320.04             50.3869               3.5329       
        11032.12             50.3224               3.1377       
        11793.34             50.2428               2.7892       
        12607.08             50.1534               2.4818       
        13476.97             50.0578               2.2102       
        14406.88             49.9577               1.9686       
        15400.95             49.8538               1.7545       
        16463.62             49.7468               1.5653       
        17599.61             49.6362               1.3947       
        18813.98             49.5174               1.2404       
        20112.15             49.3865               1.1005       
        21499.88              49.235              0.97529       
        22983.38             49.0522              0.86507       
        24569.23             48.8135              0.76798       
        26264.5              48.4518               0.6824       
        28076.76             47.6648              0.60051       
        28616.1              47.0981              0.57853       
        29054.1              45.8386              0.56159       
        29170.9               44.325              0.55721       
        29346.1              45.8608               3.5328       
        29784.1              47.2498               3.4443       
        30014.05             47.5904               3.3992       
        32085.02             48.8917               3.0381       
        34298.89             49.4402               2.7208       
        36665.51             49.7671               2.4382       
        39195.43             49.9853               2.1809       
        41899.92             50.1305               1.9457       
        44791.01             50.2279               1.7347       
        47881.59             50.2924               1.5459       
        51185.42             50.3335               1.3771       
        54717.21             50.3579               1.2266       
        58492.7              50.4028               1.0924       
        62528.7              50.4047              0.96868       
        66843.18             50.3982              0.85903       
        71455.36             50.3866              0.76186       
        76385.78             50.3718              0.67575       
        81656.4              50.3569              0.59847       
        87290.69              50.338               0.5282       
        93313.74             50.3177              0.46621       
        99752.39             50.2969              0.41152       
        106635.3             50.2763              0.36327       
        113993.1             50.2561              0.32071       
        121858.7             50.2366              0.28314       
        130266.9             50.2181              0.24995       
        139255.3             50.2004              0.22061       
        148864.0             50.1838              0.19472       
        159135.6             50.1682              0.17188       
        170115.9             50.1536              0.15173       
        181853.9             50.1401              0.13395       
        194401.8             50.1276              0.11825       
        207815.6             50.1161               0.1044       
        222154.8             50.1054              0.092181      
        237483.5             50.0957              0.081392      
        253869.9             50.0867              0.07187       
        271386.9             50.0785              0.063464      
        290112.6             50.0711              0.056043      
        310130.4             50.0642              0.049492      
        331529.4              50.058              0.043709      
        354404.9             50.0524              0.038603      
        378858.8             50.0473              0.034094      
        405000.1             50.0426              0.030114      
        432945.1             50.0384              0.026598      
