# Sr
# Form Factors from Chantler Tables
# DOI: https://dx.doi.org/10.18434/T4HS32
# automatically retrived 2019-02-28 using URL https://physics.nist.gov/cgi-bin/ffast/ffast.pl

# For f_rel the second term, which is 3/5th of the Cromer-Liberman value, is used as suggested by Chantler.
# Real and imaginary part of the formfactors are: f'(E)=f1(E)+f_rel+f_NT and f''(E)=f2(E)
# see also original publication:  https://doi.org/10.1063/1.555974

# Z = 38
# f_rel = -0.1692 e/atom  (Relativistic correction estimate)
# f_NT = -0.0090407 e/atom (Nuclear Thomson correction)


#        E (eV)            f1 (e/atom)          f2 (e/atom)     
         10.69               6.01475                0.0         
        11.42761             5.84877                0.0         
        12.21612             5.64098                0.0         
        13.05903              5.3755                0.0         
        13.9601              5.02694                0.0         
        14.92335             4.55166                0.0         
        15.95306             3.86641                0.0         
        17.05382              2.785                 0.0         
        18.23053             0.754046               0.0         
        19.48844             -5.82671               0.0         
         19.502              -6.00105               0.0         
        19.8005              -13.6341               0.0         
        19.8801              -23.0666               0.0         
        19.9995              -12.8619              18.72        
         20.298              -3.82214              17.971       
        20.83314             2.01263               16.728       
        22.27063             8.40831               13.904       
        23.8073              11.4841               11.221       
        25.45001             12.9978               8.7811       
        27.20606              13.603               6.7384       
        29.08327             13.6861               5.1194       
        31.09002             13.4888               3.8813       
        33.23523             13.1574               2.9556       
        35.52846              12.773               2.2723       
         36.946              12.5346               1.9596       
        37.5115              12.4291               1.8527       
        37.6623              12.3844               1.8257       
        37.8885              12.3712               1.8292       
        37.97993             12.3628               1.8141       
         38.454              12.3062               1.7391       
        40.60054              12.032               1.4601       
        43.40198              11.712               1.207        
        46.39671             11.4213               1.0266       
        49.59809             11.1581              0.89863       
        53.02035             10.9182              0.80874       
        56.67876             10.6961              0.74641       
        60.58959             10.4934              0.70405       
        64.77028             10.2891              0.67615       
        69.23942             10.0843              0.65872       
        74.01695             9.87222               0.6489       
        79.12411              9.6453              0.64464       
        84.58368             9.39477              0.64464       
        90.41995             9.11006              0.64796       
        96.65893             8.77712              0.65373       
        103.3284             8.37592              0.66129       
        110.4581             7.87523              0.67015       
        118.0797             7.21893              0.67994       
        126.2272             6.26992              0.69034       
        130.438              5.54051              0.69558       
         132.3               5.01232              0.69786       
        132.4345             4.95426              0.69802       
        132.9669             4.56862              0.69867       
        133.7655             4.63112               1.2472       
        134.325              4.56576               1.2706       
        134.9368             4.25375               1.2972       
        135.675               4.4424               1.7037       
        135.762               4.4465               1.7101       
         137.7               4.35558               1.8615       
        144.2475             3.59201               2.5308       
        154.2005             2.40039               4.0874       
        164.8404             1.56073               6.2297       
        176.2144             1.31547               8.7792       
        188.3732             1.79924               11.466       
        201.3709             2.99766               13.995       
        215.2655             4.76573               16.122       
        230.1188             6.87259                17.7        
        245.997              9.02751               18.678       
        262.9708             10.6739               19.087       
        263.718              10.6994               19.093       
        267.7545             10.4677               19.11        
        268.8309             9.77365               19.11        
        270.4455             10.7411               20.693       
        274.204              11.7583               20.703       
        274.482              11.8076               20.703       
        278.401              12.2586               20.694       
        279.5202             12.0944               20.688       
        281.1158             12.6846               21.367       
        281.199              12.7109               21.367       
        285.396              13.6391               21.343       
        300.5128             15.8617               21.135       
        321.2482             18.1526               20.62        
        343.4143             19.9592               19.892       
         350.35              20.3353               19.644       
        355.7125             20.3684               19.448       
        357.1425             20.0386               19.395       
        359.2875             20.6284               20.165       
         364.65              21.3786               19.968       
        367.1099             21.6251               19.876       
        392.4405             23.4986               18.928       
        419.5189             24.9534               17.932       
        448.4657             26.1751               16.918       
        479.4098              27.206               15.907       
        512.4891             28.0783               14.913       
        547.8508             28.8164               13.946       
        585.6525             29.4368               13.007       
        626.0625             29.9511               12.102       
        669.2609             30.3708               11.236       
        715.4399             30.7066               10.413       
        764.8052             30.9681               9.6331       
        817.5768              31.169               8.8989       
        873.9896             31.3124               8.2102       
        934.2948              31.413               7.5663       
        998.7612             31.5546               6.9663       
        1067.676             31.5036               6.3301       
        1141.345             31.3758               5.7183       
        1220.098             31.1577               5.1566       
        1304.285             30.8513               4.6569       
        1394.281             30.4446               4.2117       
        1490.486             29.9032               3.8117       
        1593.329             29.1497               3.4528       
        1703.269             28.0062               3.132        
        1820.795             25.8874               2.8448       
        1900.808             22.4478               2.6757       
        1929.902             18.3841               2.6188       
        1937.66               13.839               2.604        
        1946.43              17.1473               11.304       
        1949.298             18.0907               11.275       
        1966.664              20.616               11.103       
        1978.392             21.2315               10.989       
        1996.766             21.0047               10.815       
        2004.793             19.2132               10.74        
        2016.834             21.9144               14.918       
        2046.936             24.8433               14.547       
        2080.733             26.4766               14.159       
        2171.974             28.5735               13.212       
        2205.219             28.4259               12.897       
        2214.084             27.6147               12.815       
        2224.304             28.5604               14.635       
        2227.382             28.8147               14.605       
        2260.626             30.2095               14.284       
        2377.781             32.4386               13.26        
        2541.848             34.1917               12.045       
        2717.235             35.3853               10.915       
        2904.724             36.2474               9.8856       
        3105.15              36.8987               8.9071       
        3319.406              37.34                7.9961       
        3548.445             37.6486               7.1843       
        3793.288             37.8686               6.4604       
        4055.024              38.172               5.7885       
        4334.821             38.2552               5.1674       
        4633.924             38.3309               4.6063       
        4953.664             38.3224               4.1044       
        5295.467             38.2855               3.658        
        5660.855             38.2285               3.2608       
        6051.453             38.1577               2.9094       
        6469.004              38.078               2.5983       
        6915.365             37.9926               2.3221       
        7392.525             37.9036               2.0766       
        7902.609             37.8125               1.8587       
        8447.89              37.7216               1.6649       
        9030.794             37.6321               1.4831       
        9653.919              37.529               1.3088       
        10320.04             37.4095               1.1512       
        11032.12             37.2732               1.0135       
        11793.34              37.116              0.89312       
        12607.08             36.9268               0.7878       
        13476.97             36.6805              0.69556       
        14406.88             36.3115              0.61469       
        15400.95             35.5442              0.54374       
        15782.51             34.8227              0.51994       
        16024.08             33.4696              0.50573       
        16088.5              31.8377              0.50204       
        16185.12             33.5041               3.7145       
        16426.69             35.0109               3.6075       
        16463.62              35.131               3.5915       
        17599.61             36.6899               3.1809       
        18813.98             37.2957               2.854        
        20112.15             37.6587               2.5703       
        21499.88             37.9092                2.31        
        22983.38             38.0799               2.0662       
        24569.23              38.197               1.8459       
        26264.5              38.2782               1.6484       
        28076.76             38.3342               1.4669       
        30014.05             38.3668               1.3039       
        32085.02             38.3854               1.1592       
        34298.89             38.4267               1.0241       
        36665.51             38.4218              0.90457       
        39195.43             38.4101              0.79901       
        41899.92             38.3941              0.70582       
        44791.01             38.3754              0.62346       
        47881.59             38.3551              0.55068       
        51185.42              38.334              0.48613       
        54717.21             38.3126              0.42918       
        58492.7              38.2914              0.37893       
        62528.7              38.2709              0.33458       
        66843.18             38.2512              0.29544       
        71455.36             38.2327              0.26046       
        76385.78             38.2149              0.22893       
        81656.4              38.1983              0.20103       
        87290.69             38.1818              0.17615       
        93313.74             38.1662              0.15436       
        99752.39             38.1515              0.13527       
        106635.3             38.1379              0.11855       
        113993.1             38.1252              0.10389       
        121858.7             38.1136              0.091057      
        130266.9             38.1029              0.079809      
        139255.3             38.0931              0.069953      
        148864.0             38.0841              0.061317      
        159135.6             38.0759              0.053749      
        170115.9             38.0684              0.047116      
        181853.9             38.0617              0.041304      
        194401.8             38.0555              0.03621       
        207815.6             38.0499              0.031745      
        222154.8             38.0449              0.027832      
        237483.5             38.0403              0.024401      
        253869.9             38.0362              0.021395      
        271386.9             38.0324              0.018759      
        290112.6             38.0291              0.016449      
        310130.4             38.0261              0.014423      
        331529.4             38.0233              0.012647      
        354404.9             38.0209              0.011091      
        378858.8             38.0187             0.0097258      
        405000.1             38.0167             0.0085292      
        432945.1             38.0149              0.00748       
