# Ti
# Form Factors from Chantler Tables
# DOI: https://dx.doi.org/10.18434/T4HS32
# automatically retrived 2019-02-27 using URL https://physics.nist.gov/cgi-bin/ffast/ffast.pl
#
# Z = 22
# f_rel = -0.073171 e/atom  (Relativistic correction estimate)
# f_NT = -0.0055454 e/atom (Nuclear Thomson correction)


#        E (eV)            f1 (e/atom)          f2 (e/atom)     
         10.69               9.42905                0.0         
        11.42761             9.42053                0.0         
        12.21612             9.41062                0.0         
        13.05903             9.39906                0.0         
        13.9601              9.38551                0.0         
        14.92335             9.36957                0.0         
        15.95306              9.3507                0.0         
        17.05382             9.32824                0.0         
        18.23053             9.30127                0.0         
        19.48844             9.26856                0.0         
        20.83314             9.22834                0.0         
        22.27063             9.17803                0.0         
        23.8073              9.11359                0.0         
        25.45001             9.02823                0.0         
        27.20606             8.90939                0.0         
        29.08327             8.73001                0.0         
        31.09002             8.41542                0.0         
        33.23523             7.60473                0.0         
         33.908              6.89881                0.0         
         34.427              5.21284                0.0         
        34.5654              3.01476                0.0         
         34.773              5.60428               4.4077       
         35.292              7.86368               3.936        
        35.52846             8.34078               3.7403       
        37.97993             9.99065               2.2468       
        40.60054             10.1319               1.4413       
        43.40198             10.0332               1.0503       
        46.39671             9.89691              0.85004       
        49.59809             9.75735              0.74921       
        53.02035             9.61388              0.70691       
        56.67876             9.44458              0.70362       
         59.094              9.26972               0.7168       
        59.9985              9.10085              0.72413       
        60.2397              8.92474              0.72628       
        60.58959             9.07958               1.0619       
        60.6015               9.0835               1.0621       
         61.506              9.20754               1.0777       
        64.77028              9.2831               1.1418       
        69.23942             9.29671               1.2446       
        74.01695             9.30317               1.3647       
        79.12411             9.31776               1.4997       
        84.58368              9.3468               1.6471       
        90.41995             9.39422               1.8036       
        96.65893             9.46274               1.9656       
        103.3284             9.55397               2.1285       
        110.4581             9.66065               2.2874       
        118.0797             9.79749               2.4371       
        126.2272             9.95464               2.5726       
        134.9368              10.129               2.6893       
        144.2475             10.3167               2.7827       
        154.2005             10.5109               2.8469       
        164.8404             10.7029               2.8809       
        176.2144             10.8847               2.8854       
        188.3732             11.0503               2.8628       
        201.3709             11.1902               2.8158       
        215.2655             11.2992               2.748        
        230.1188              11.371               2.6634       
        245.997              11.3988               2.5655       
        262.9708             11.3743               2.4579       
        281.1158             11.2871               2.3437       
        300.5128             11.1216               2.2258       
        321.2482              10.854               2.1067       
        343.4143              10.444               1.9881       
        367.1099             9.81571               1.8718       
        392.4405             8.80332               1.7587       
        419.5189             6.92604               1.6498       
         446.39              1.92843               1.5526       
        448.4657             0.987301              1.5455       
         452.27              -1.76894              1.5327       
        453.2225             -2.96272              1.5295       
        455.0445             -8.18637              1.5234       
        457.7775             -3.90944              11.107       
        459.1925             -3.08146              11.064       
        461.0385             -4.1943               11.008       
        463.8075            -0.365275              15.678       
         464.61              0.404249              15.643       
         470.73              3.83984               15.387       
        479.4098             6.44177               15.035       
        512.4891             11.0633               13.816       
        547.8508             13.0866               12.665       
        552.426              13.1659               12.526       
        560.8815             12.8802               12.274       
        563.1363             12.1445               12.208       
        566.5185             13.1577               13.763       
        574.974               14.27                13.515       
        585.6525             15.0556               13.211       
        626.0625             16.9001               12.153       
        669.2609             18.1505               11.157       
        715.4399             19.0837               10.224       
        764.8052             19.8089               9.3601       
        817.5768             20.3785               8.5328       
        873.9896             20.8094               7.7655       
        934.2948             21.1416               7.064        
        998.7612             21.4337               6.4217       
        1067.676             21.6411               5.7774       
        1141.345             21.7616               5.1954       
        1220.098             21.8304               4.6702       
        1304.285             21.8617               4.1983       
        1394.281             21.8659               3.7746       
        1490.486             21.8498               3.3947       
        1593.329             21.8189               3.0542       
        1703.269             21.7801               2.7492       
        1820.795             21.7335               2.4762       
        1946.43              21.6786               2.2158       
        2080.733             21.6125               1.9839       
        2224.304             21.5408               1.7785       
        2377.781             21.4645               1.5901       
        2541.848             21.3815               1.4215       
        2717.235             21.2933               1.272        
        2904.724             21.2005               1.1394       
        3105.15              21.1027               1.0116       
        3319.406             20.9847              0.89095       
        3548.445             20.8432              0.78546       
        3793.288             20.6701              0.69316       
        4055.024             20.4452              0.61232       
        4334.821             20.1195              0.54145       
        4633.924             19.5302              0.47926       
        4867.072             18.3295              0.43839       
        4941.568             16.8446              0.42651       
        4953.664             16.1067              0.42463       
        4961.434             15.0532              0.42343       
        4991.232             16.8795               3.9516       
        5065.728             18.5331               3.8444       
        5295.467             19.9941                3.55        
        5660.855             20.8781               3.1852       
        6051.453             21.3665               2.8699       
        6469.004             21.6932               2.5886       
        6915.365             21.9215               2.3196       
        7392.525             22.0793               2.076        
        7902.609             22.1897               1.8566       
        8447.89              22.2671               1.6599       
        9030.794             22.3223               1.4823       
        9653.919             22.3587               1.319        
        10320.04             22.4196               1.1692       
        11032.12              22.425               1.033        
        11793.34             22.4203               0.9125       
        12607.08             22.4091              0.80612       
        13476.97             22.3936              0.71218       
        14406.88             22.3754              0.62924       
        15400.95             22.3555              0.55599       
        16463.62             22.3348              0.49128       
        17599.61             22.3139              0.43414       
        18813.98             22.2934              0.38365       
        20112.15             22.2735              0.33906       
        21499.88             22.2547              0.29966       
        22983.38             22.2365               0.2632       
        24569.23             22.2186              0.23115       
        26264.5              22.2014              0.20302       
        28076.76             22.1864              0.17732       
        30014.05             22.1708               0.1546       
        32085.02             22.1559              0.13479       
        34298.89              22.142              0.11752       
        36665.51             22.1289              0.10247       
        39195.43             22.1169              0.089345      
        41899.92             22.1058              0.077906      
        44791.01             22.0957              0.067933      
        47881.59             22.0863              0.059238      
        51185.42             22.0779              0.051657      
        54717.21             22.0701              0.045047      
        58492.7              22.0631              0.039284      
        62528.7              22.0568              0.034259      
        66843.18              22.051              0.029877      
        71455.36             22.0458              0.026057      
        76385.78             22.0411              0.022725      
        81656.4              22.0369              0.019787      
        87290.69             22.0331              0.017165      
        93313.74             22.0297              0.014891      
        99752.39             22.0266              0.012918      
        106635.3             22.0237              0.011207      
        113993.1             22.0212             0.0097228      
        121858.7             22.0189             0.0084351      
        130266.9             22.0169              0.007318      
        139255.3              22.015             0.0063489      
        148864.0             22.0134             0.0055082      
        159135.6             22.0119             0.0047789      
        170115.9             22.0106             0.0041462      
        181853.9             22.0094             0.0035972      
        194401.8             22.0084              0.003121      
        207815.6             22.0075             0.0027079      
        222154.8             22.0066             0.0023494      
        237483.5             22.0059             0.0020384      
        253869.9             22.0052             0.0017686      
        271386.9             22.0046             0.0015346      
        290112.6             22.0041             0.0013315      
        310130.4             22.0037             0.0011553      
        331529.4             22.0032             0.0010024      
        354404.9             22.0029             0.00086974     
        378858.8             22.0025             0.00075465     
        405000.1             22.0023             0.0006548      
        432945.1              22.002             0.00056816     
