# V
# Form Factors from Chantler Tables
# DOI: https://dx.doi.org/10.18434/T4HS32
# automatically retrived 2019-02-28 using URL https://physics.nist.gov/cgi-bin/ffast/ffast.pl

# For f_rel the second term, which is 3/5th of the Cromer-Liberman value, is used as suggested by Chantler.
# Real and imaginary part of the formfactors are: f'(E)=f1(E)+f_rel+f_NT and f''(E)=f2(E)
# see also original publication:  https://doi.org/10.1063/1.555974

# Z = 23
# f_rel = -0.0504 e/atom  (Relativistic correction estimate)
# f_NT = -0.0056967 e/atom (Nuclear Thomson correction)


#        E (eV)            f1 (e/atom)          f2 (e/atom)     
         10.69               6.03298               1.3926       
        11.42761             6.07191               1.4821       
        12.21612             6.11684               1.5754       
        13.05903             6.16824               1.672        
        13.9601              6.22652               1.7714       
        14.92335             6.29198               1.8729       
        15.95306             6.36478               1.9757       
        17.05382             6.44492               2.0791       
        18.23053             6.53219               2.1821       
        19.48844             6.62612               2.2838       
        20.83314             6.72589               2.3833       
        22.27063             6.83025               2.4796       
        23.8073              6.93728               2.572        
        25.45001             7.04404               2.6595       
        27.20606             7.14583               2.7415       
        29.08327             7.23437               2.8172       
        31.09002             7.29311               2.8862       
        33.23523             7.28097               2.948        
        35.52846             7.04435               3.0024       
         37.044              6.31229               3.0326       
         37.611              5.04483               3.0429       
        37.7622              3.35785               3.0455       
        37.97993             5.28829               6.4585       
         37.989              5.34875               6.4533       
         38.556              7.12733               6.145        
        40.60054             8.81634               5.2816       
        43.40198             9.44378               4.4661       
        46.39671             9.66967               3.9727       
        49.59809             9.79279               3.6535       
        53.02035              9.8731               3.4244       
        56.67876             9.92252               3.2483       
        60.58959             9.93366               3.1077       
        64.77028             9.84482               2.9948       
         65.17               9.81827               2.9856       
        66.1675              9.66616               2.9639       
        66.4335              9.48206               2.9583       
        66.8325              9.66842               3.3136       
         67.83               9.83442               3.3006       
        69.23942             9.92865               3.2845       
        74.01695             10.0868               3.2481       
        79.12411             10.1956               3.2329       
        84.58368             10.2928               3.2361       
        90.41995             10.3896               3.256        
        96.65893             10.4924               3.2903       
        103.3284             10.6054               3.3358       
        110.4581             10.7319               3.3885       
        118.0797             10.8633               3.4437       
        126.2272             11.0204               3.4966       
        134.9368             11.1921               3.5423       
        144.2475             11.3764               3.5763       
        154.2005             11.5703               3.5945       
        164.8404             11.7692               3.591        
        176.2144             11.9653               3.5633       
        188.3732             12.1513               3.5119       
        201.3709             12.3224               3.4384       
        215.2655              12.469               3.3451       
        230.1188             12.5871               3.2352       
        245.997              12.6713               3.112        
        262.9708              12.716               2.9789       
        281.1158              12.715               2.839        
        300.5128             12.6602               2.695        
        321.2482             12.5404               2.5496       
        343.4143             12.3391               2.405        
        367.1099             12.0299               2.263        
        392.4405              11.567               2.1248       
        419.5189             10.8618               1.9915       
        448.4657             9.71151               1.8639       
        479.4098             7.46757               1.7424       
        502.642              3.15839               1.6601       
         510.09              -1.39635              1.6351       
        510.3355             -1.70484              1.6343       
        512.4891             -7.62793              1.6273       
        515.4645             -2.50381              11.276       
        517.8975             -1.34166              11.206       
        519.9795             -2.63868              11.147       
        523.1025             1.09287               15.841       
        523.158               1.144                15.839       
         530.91               5.2073               15.532       
        547.8508             9.04877               14.897       
        585.6525             12.8372               13.629       
        615.636              14.0588               12.738       
        625.059              13.7816               12.476       
        626.0625             13.6222               12.448       
        627.5718              13.035               12.407       
        631.341              14.0717               13.99        
        640.764              15.2143               13.733       
        669.2609              16.855                13.0        
        715.4399             18.4554               11.939       
        764.8052              19.596               10.937       
        817.5768             20.4566               10.006       
        873.9896             21.1301               9.1452       
        934.2948             21.6581               8.3284       
        998.7612             22.0899               7.5803       
        1067.676             22.4125               6.8343       
        1141.345             22.6235               6.1482       
        1220.098             22.7603                5.53        
        1304.285             22.8438               4.9725       
        1394.281             22.8869               4.471        
        1490.486             22.8996               4.0207       
        1593.329             22.8934               3.6167       
        1703.269             22.8669               3.2545       
        1820.795             22.8285                2.93        
        1946.43              22.7819               2.6393       
        2080.733             22.7317               2.3764       
        2224.304              22.672               2.1275       
        2377.781             22.6035               1.9068       
        2541.848             22.5308               1.7099       
        2717.235             22.4528               1.5291       
        2904.724             22.3715               1.3687       
        3105.15              22.2923               1.215        
        3319.406             22.1901               1.0704       
        3548.445             22.0721              0.94397       
        3793.288             21.9364              0.83331       
        4055.024             21.7762              0.73636       
        4334.821             21.5764              0.65136       
        4633.924             21.3044              0.57675       
        4953.664             20.8694              0.51121       
        5295.467             19.8136              0.45356       
        5355.798              19.367              0.44449       
        5437.774             17.8916              0.43262       
        5459.635             16.1109              0.42954       
        5492.425             17.9281               3.9371       
        5574.402             19.5732               3.8274       
        5660.855             20.2817               3.7167       
        6051.453             21.5912               3.3154       
        6469.004             22.1944               2.9844       
        6915.365             22.5734               2.6931       
        7392.525             22.8396               2.4213       
        7902.609             23.0228               2.1691       
        8447.89              23.1513               1.9414       
        9030.794             23.2454               1.7355       
        9653.919              23.309               1.5457       
        10320.04             23.3493               1.3765       
        11032.12             23.4148               1.2246       
        11793.34             23.4254               1.0823       
        12607.08              23.424              0.95604       
        13476.97             23.4149              0.84453       
        14406.88             23.4008              0.74607       
        15400.95             23.3833              0.65914       
        16463.62             23.3639              0.58237       
        17599.61             23.3434              0.51457       
        18813.98             23.3225              0.45469       
        20112.15             23.3018               0.4018       
        21499.88             23.2816              0.35508       
        22983.38             23.2624               0.3138       
        24569.23             23.2443              0.27646       
        26264.5              23.2271              0.24293       
        28076.76             23.2099              0.21236       
        30014.05             23.1928              0.18533       
        32085.02             23.1764              0.16172       
        34298.89              23.161              0.14113       
        36665.51             23.1466              0.12316       
        39195.43             23.1332              0.10749       
        41899.92             23.1208              0.093808      
        44791.01             23.1094              0.081873      
        47881.59             23.0989              0.071458      
        51185.42             23.0894              0.06237       
        54717.21             23.0806              0.054438      
        58492.7              23.0727              0.047517      
        62528.7              23.0654              0.041476      
        66843.18             23.0589              0.036204      
        71455.36              23.053              0.031603      
        76385.78             23.0476              0.027587      
        81656.4              23.0431              0.024042      
        87290.69             23.0386              0.020874      
        93313.74             23.0346              0.018123      
        99752.39              23.031              0.015735      
        106635.3             23.0277              0.013662      
        113993.1             23.0247              0.011862      
        121858.7             23.0221               0.0103       
        130266.9             23.0197             0.0089431      
        139255.3             23.0176             0.0077653      
        148864.0             23.0157             0.0067426      
        159135.6              23.014             0.0058547      
        170115.9             23.0124             0.0050838      
        181853.9             23.0111             0.0044144      
        194401.8             23.0099             0.0038332      
        207815.6             23.0088             0.0033286      
        222154.8             23.0078             0.0028904      
        237483.5             23.0069             0.0025099      
        253869.9             23.0062             0.0021795      
        271386.9             23.0055             0.0018926      
        290112.6             23.0049             0.0016435      
        310130.4             23.0043             0.0014272      
        331529.4             23.0038             0.0012394      
        354404.9             23.0034             0.0010763      
        378858.8              23.003             0.00093467     
        405000.1             23.0027             0.00081168     
        432945.1             23.0024             0.00070488     
