# Xe
# Form Factors from Chantler Tables
# DOI: https://dx.doi.org/10.18434/T4HS32
# automatically retrived 2019-02-28 using URL https://physics.nist.gov/cgi-bin/ffast/ffast.pl

# For f_rel the second term, which is 3/5th of the Cromer-Liberman value, is used as suggested by Chantler.
# Real and imaginary part of the formfactors are: f'(E)=f1(E)+f_rel+f_NT and f''(E)=f2(E)
# see also original publication:  https://doi.org/10.1063/1.555974

# Z = 54
# f_rel = -0.396 e/atom  (Relativistic correction estimate)
# f_NT = -0.012184 e/atom (Nuclear Thomson correction)


#        E (eV)            f1 (e/atom)          f2 (e/atom)     
         10.69               17.4817                0.0         
        11.42761             17.4729                0.0         
        12.21612             17.4627                0.0         
        13.05903              17.451                0.0         
        13.9601              17.4376                0.0         
        14.92335             17.4222                0.0         
        15.95306             17.4044                0.0         
        17.05382             17.3839                0.0         
        18.23053             17.3603                0.0         
        19.48844              17.333                0.0         
        20.83314             17.3014                0.0         
        22.27063             17.2647                0.0         
        23.8073              17.2221                0.0         
        25.45001             17.1724                0.0         
        27.20606             17.1143                0.0         
        29.08327              17.046                0.0         
        31.09002             16.9653                0.0         
        33.23523             16.8696                0.0         
        35.52846             16.7551                0.0         
        37.97993             16.6169                0.0         
        40.60054             16.4483                0.0         
        43.40198             16.2392                0.0         
        46.39671             15.9749                0.0         
        49.59809              15.631                0.0         
        53.02035             15.1635                0.0         
        56.67876             14.4787                0.0         
        60.58959             13.2889                0.0         
         62.72               11.9994                0.0         
         63.68               10.5181                0.0         
         63.936              9.04168                0.0         
         64.32               10.1989               2.7373       
        64.77028             10.7681               2.8683       
         65.28               11.0295               3.023        
        69.23942             11.3451               4.4855       
        74.01695             11.9353               6.6806       
        79.12411             13.4352               8.5363       
        84.58368             15.4567               9.6404       
        90.41995             17.5482               9.9217       
        96.65893             19.3672               9.5457       
        103.3284             20.7487               8.7673       
        110.4581             21.6728               7.8187       
        118.0797             22.1972               6.8627       
        126.2272             22.3982               5.9916       
        134.9368             22.3204               5.2451       
        143.766              21.8272               4.6587       
        144.2475             21.7629               4.631        
        145.9665             21.3416               4.5353       
        146.5533             20.7968               4.5038       
        147.4335             21.3224               5.5082       
        149.634              21.7567               5.4034       
        154.2005             22.0064               5.2082       
        164.8404              22.129               4.8526       
        176.2144             22.0852               4.5958       
        188.3732             21.9645               4.4226       
        201.3709             21.7702               4.3179       
        203.938              21.6898               4.3047       
        207.0595             21.4862               4.2913       
        207.8919             21.2694               4.2883       
        209.1405             21.4691               4.6957       
        212.262              21.6278               4.6923       
        215.2655             21.6791               4.6913       
        230.1188             21.7426               4.7129       
        245.997              21.7454               4.7685       
        262.9708             21.7359               4.8475       
        281.1158             21.7211               4.9411       
        300.5128             21.6987               5.0418       
        321.2482             21.6617               5.1427       
        343.4143             21.5992               5.2375       
        367.1099             21.4951               5.3204       
        392.4405             21.3273               5.3862       
        419.5189             21.0644               5.4308       
        448.4657             20.6582               5.4507       
        479.4098             20.0448               5.4436       
        512.4891             19.1067               5.4084       
        547.8508             17.6322               5.3453       
        585.6525             15.1523               5.2553       
        626.0625             10.2292               5.1399       
        658.854             -0.298003              5.0359       
        669.2609             -12.4339              5.0016       
        671.692              -24.5681              4.9935       
        675.6615             -13.2073              27.559       
        681.973              -9.82041              27.119       
        684.7146             -15.3958              26.932       
        685.746              -17.9455              41.885       
        688.827              -5.13804              41.543       
        699.108              5.78404               40.435       
        715.4399             13.7642               38.768       
        764.8052             24.5976                34.4        
        817.5768              29.707               30.971       
        873.9896             32.5139               28.17        
         918.26              32.9938               26.334       
        932.315              31.8535               25.798       
        934.2948             31.2765               25.725       
        936.063              30.0986               25.659       
        941.685              32.1316                29.1        
         955.74              34.0977               28.595       
         979.02              35.3823               27.794       
        994.005              35.4177                27.3        
        998.7612             33.9244               27.146       
        1003.995              35.919               28.757       
        1018.98              37.3675               28.243       
        1067.676             39.7178               26.672       
        1121.708             41.1467               25.123       
        1138.877             41.1545               24.669       
        1141.345             41.0201                24.6        
        1143.455             40.7001               24.542       
        1150.323             41.4707               25.494       
        1167.492             42.4232               25.011       
        1220.098             43.9835               23.587       
        1304.285             45.5566               21.576       
        1394.281             46.6886               19.756       
        1490.486             47.5513               18.107       
        1593.329             48.2356               16.595       
        1703.269              48.765               15.167       
        1820.795             49.1379               13.829       
        1946.43              49.3845               12.613       
        2080.733             49.5404               11.509       
        2224.304             49.6205               10.509       
        2377.781              49.663               9.5998       
        2541.848             49.6398               8.7741       
        2717.235              49.583               8.0226       
        2904.724             49.4927               7.2962       
        3105.15               49.346               6.5778       
        3319.406             49.0369               5.8878       
        3548.445             48.6191               5.2812       
        3793.288             48.0668               4.742        
        4055.024             47.2888               4.243        
        4334.821             46.0511               3.7928       
        4633.924             43.2904               3.3957       
        4686.556             42.2221               3.3332       
        4758.289             38.9074               3.2512       
        4777.418             35.0859               3.2299       
        4806.111             38.8484               10.612       
        4877.844             42.0237               10.271       
        4953.664              43.039               9.9278       
        5001.626             43.2058               9.7191       
        5078.182             42.3055               9.433        
        5098.596             40.5721               9.3624       
        5129.219             42.6732               12.947       
        5205.774             44.7523               12.575       
        5295.467             45.7697               12.166       
        5343.744             46.0586               11.958       
        5425.536             45.9458               11.638       
        5447.347             45.1763               11.557       
        5480.064             46.3112               13.252       
        5561.856             47.6166               12.949       
        5660.855             48.4989               12.605       
        6051.453             50.5102               11.42        
        6469.004             51.7598               10.336       
        6915.365             52.6129               9.3148       
        7392.525             53.2022               8.3751       
        7902.609             53.6109               7.5253       
        8447.89              53.8997               6.7644       
        9030.794             54.1224               6.0747       
        9653.919             54.3248               5.4221       
        10320.04             54.4259               4.8271       
        11032.12             54.4732               4.2915       
        11793.34             54.4466               3.8087       
        12607.08             54.3916               3.3831       
        13476.97             54.3183               3.007        
        14406.88             54.2329               2.6749       
        15400.95             54.1397               2.3817       
        16463.62             54.0413               2.1226       
        17599.61             53.9394               1.8933       
        18813.98             53.8345               1.689        
        20112.15             53.7261               1.5075       
        21499.88             53.6131               1.3446       
        22983.38             53.4914               1.1978       
        24569.23             53.3563               1.065        
        26264.5              53.1993              0.94548       
        28076.76             53.0051              0.83239       
        30014.05             52.7236              0.73122       
        32085.02             52.2415              0.64288       
        33870.17             51.1766              0.57946       
        34298.89              50.322              0.56569       
        34388.59             49.9447              0.56288       
        34526.84             48.4666              0.55858       
        34734.21             49.9634               3.4633       
        35252.63             51.3169                3.38        
        36665.51             52.4379               3.1686       
        39195.43             53.2174               2.8388       
        41899.92             53.6296               2.5432       
        44791.01             53.8905               2.2781       
        47881.59              54.065               2.0335       
        51185.42             54.1809               1.8141       
        54717.21             54.2583               1.6179       
        58492.7              54.3087               1.4425       
        62528.7              54.3398               1.2859       
        66843.18             54.3573               1.1462       
        71455.36             54.3963                1.02        
        76385.78             54.3945              0.90616       
        81656.4              54.3894              0.80382       
        87290.69             54.3768              0.71056       
        93313.74              54.36               0.62818       
        99752.39             54.3409               0.5554       
        106635.3             54.3206              0.49109       
        113993.1               54.3               0.43427       
        121858.7             54.2794              0.38405       
        130266.9             54.2592              0.33966       
        139255.3             54.2397              0.30042       
        148864.0              54.221              0.26574       
        159135.6             54.2032               0.2352       
        170115.9             54.1866               0.2082       
        181853.9             54.1709               0.1843       
        194401.8             54.1564              0.16316       
        207815.6             54.1428              0.14446       
        222154.8             54.1302               0.1279       
        237483.5             54.1186              0.11325       
        253869.9             54.1079              0.10029       
        271386.9             54.0981              0.088808      
        290112.6              54.089              0.078648      
        310130.4             54.0807              0.069654      
        331529.4             54.0732              0.061692      
        354404.9             54.0662              0.054642      
        378858.8             54.0599               0.0484       
        405000.1             54.0542              0.042873      
        432945.1             54.0489              0.037979      
