# Y
# Form Factors from Chantler Tables
# DOI: https://dx.doi.org/10.18434/T4HS32
# automatically retrived 2019-02-28 using URL https://physics.nist.gov/cgi-bin/ffast/ffast.pl

# For f_rel the second term, which is 3/5th of the Cromer-Liberman value, is used as suggested by Chantler.
# Real and imaginary part of the formfactors are: f'(E)=f1(E)+f_rel+f_NT and f''(E)=f2(E)
# see also original publication:  https://doi.org/10.1063/1.555974

# Z = 39
# f_rel = -0.18 e/atom  (Relativistic correction estimate)
# f_NT = -0.0093851 e/atom (Nuclear Thomson correction)


#        E (eV)            f1 (e/atom)          f2 (e/atom)     
         10.69               9.25807                0.0         
        11.42761             9.21353                0.0         
        12.21612             9.16034                0.0         
        13.05903              9.0963                0.0         
        13.9601              9.01842                0.0         
        14.92335              8.9225                0.0         
        15.95306             8.80245                0.0         
        17.05382             8.64897                0.0         
        18.23053             8.44706                0.0         
        19.48844             8.17048                0.0         
        20.83314             7.76777                0.0         
        22.27063             7.11823                0.0         
        23.8073              5.82478                0.0         
         25.088              2.66593                0.0         
        25.45001             -0.88356               0.0         
         25.472              -1.3618                0.0         
        25.5744              -6.35333               0.0         
         25.728             -0.923289              9.9117       
         26.112              3.88163               9.4699       
        27.20606             8.00855               8.348        
        29.08327             10.6268               6.7893       
        31.09002             11.8406               5.444        
        33.23523             12.4062               4.324        
        35.52846             12.6179               3.4253       
        37.97993             12.6306               2.7216       
        40.60054             12.5313               2.179        
        43.40198             12.3632               1.7643       
         44.492              12.2795               1.6368       
         45.173               12.202               1.5648       
        45.3546              12.1481               1.5466       
         45.627              12.1734               1.604        
         46.308              12.1689               1.5441       
        46.39671             12.1661               1.5367       
        49.59809             12.0224               1.314        
        53.02035             11.8616               1.151        
        56.67876             11.7016               1.0318       
        60.58959             11.5446              0.94549       
        64.77028             11.3895              0.88383       
        69.23942             11.2337              0.84065       
        74.01695             11.0734              0.81131       
        79.12411             10.9135              0.79235       
        84.58368             10.7301              0.78119       
        90.41995              10.526               0.7759       
        96.65893              10.293              0.77504       
        103.3284              10.021              0.77753       
        110.4581             9.69578              0.78263       
        118.0797             9.29754              0.78967       
        126.2272             8.79516              0.79802       
        134.9368             8.13454              0.80718       
        144.2475             7.20073              0.81672       
        154.2005              5.5529              0.82624       
        154.252              5.53953              0.82629       
        156.408              4.79154              0.82823       
        156.613              4.67786              0.82842       
        157.2426              4.0541              0.82898       
        158.187              4.23245               1.7739       
        158.802              4.17477               1.8063       
        159.4404             3.84776               1.8409       
        160.398              4.09204               2.5368       
        160.548              4.11345               2.5506       
        162.792              4.13332               2.7681       
        164.8404             4.00162               2.9871       
        176.2144             2.92375               4.6314       
        188.3732             2.16988               6.9768       
        201.3709             2.08958               9.7069       
        215.2655             2.79942               12.508       
        230.1188             4.24554               15.059       
        245.997              6.23497               17.117       
        262.9708              8.4883               18.549       
        281.1158             10.6387               19.336       
        294.294              11.5884               19.531       
        298.7985             11.2613               19.54        
        299.9997             10.4367               19.538       
        300.5128             10.2828               21.378       
        301.8015             11.5479               21.381       
        306.152              12.7165               21.378       
        306.306              12.7431               21.378       
        310.838              13.2377               21.353       
        312.0876             13.0303               21.343       
        313.962              13.7281               22.129       
        318.648              14.7549               22.086       
        321.2482             15.1933               22.055       
        343.4143             18.0485               21.616       
        367.1099             20.2626               20.907       
        385.728              21.4535               20.256       
        391.632              21.4973               20.041       
        392.4405              21.406               20.011       
        393.2064             21.1563               19.983       
        395.568              21.7734               20.78        
        401.472              22.5608               20.562       
        419.5189             23.9959               19.893       
        448.4657              25.666               18.833       
        479.4098             27.0341               17.749       
        512.4891             28.1698               16.659       
        547.8508             29.1188               15.589       
        585.6525             29.9121               14.551       
        626.0625             30.5739               13.552       
        669.2609             31.1231               12.594       
        715.4399             31.5714               11.678       
        764.8052             31.9301               10.807       
        817.5768             32.2102               9.9856       
        873.9896             32.4224               9.2134       
        934.2948             32.5811               8.4907       
        998.7612             32.6957               7.8172       
        1067.676             32.7199               7.093        
        1141.345             32.6594               6.4399       
        1220.098              32.533               5.8454       
        1304.285             32.3292               5.2774       
        1394.281             32.0337               4.7662       
        1490.486             31.6382               4.3109       
        1593.329             31.1118               3.9039       
        1703.269             30.3822               3.537        
        1820.795             29.2819               3.2091       
        1946.43              27.2756               2.9155       
         2038.4              23.7509               2.7303       
         2069.6              19.7463               2.6724       
        2077.92              15.2496               2.6573       
        2080.733             12.2125               11.347       
         2090.4              19.4878               11.25        
        2112.39              22.2543               11.032       
         2121.6              22.6814               10.943       
        2144.722             22.4813               10.724       
        2153.344             20.6853               10.644       
        2166.277             23.3438               14.777       
        2198.61                26.2                14.387       
        2224.304             27.3921                14.1        
        2325.05              29.6519               13.101       
        2360.637              29.506               12.787       
        2370.127             28.6977               12.706       
        2377.781             29.2895               14.549       
        2384.362             29.8931               14.489       
        2419.95              31.2811               14.173       
        2541.848             33.4545               13.193       
        2717.235             35.2232               11.997       
        2904.724             36.4368               10.88        
        3105.15              37.3289               9.8107       
        3319.406             37.9344               8.8048       
        3548.445              38.357               7.9085       
        3793.288             38.6559               7.1093       
        4055.024             38.8701               6.3963       
        4334.821             39.1683               5.7359       
        4633.924              39.251               5.121        
        4953.664             39.3244               4.5662       
        5295.467             39.3154               4.0696       
        5660.855             39.2785               3.6301       
        6051.453             39.2227               3.2375       
        6469.004              39.153               2.8894       
        6915.365             39.0743               2.5811       
        7392.525             38.9901               2.3079       
        7902.609             38.9024               2.0645       
        8447.89              38.8129               1.8485       
        9030.794             38.7295               1.6525       
        9653.919             38.6362                1.46        
        10320.04             38.5263               1.2899       
        11032.12              38.403               1.1357       
        11793.34             38.2634               1.0008       
        12607.08             38.1022              0.88275       
        13476.97             37.9068              0.77932       
        14406.88             37.6486              0.68866       
        15400.95             37.2495               0.6091       
        16463.62             36.3315              0.53924       
        16697.63             35.8476              0.52558       
        16953.21             34.5036              0.51129       
        17021.36              32.883              0.50758       
        17123.59             34.5372               3.6974       
        17379.17             36.0327               3.5922       
        17599.61             36.5825               3.505        
        18813.98             37.8229               3.1169       
        20112.15             38.3725               2.7995       
        21499.88             38.7118               2.5209       
        22983.38             38.9467               2.2626       
        24569.23             39.1063               2.0235       
        26264.5              39.2168               1.8082       
        28076.76             39.2939               1.6098       
        30014.05             39.3414               1.4316       
        32085.02             39.3703               1.2733       
        34298.89             39.4221               1.1318       
        36665.51             39.4258              0.99964       
        39195.43             39.4194              0.88302       
        41899.92             39.4068              0.78007       
        44791.01             39.3903              0.68916       
        47881.59             39.3712              0.60881       
        51185.42             39.3507               0.5378       
        54717.21             39.3296              0.47479       
        58492.7              39.3082               0.4192       
        62528.7              39.2872              0.37014       
        66843.18             39.2669              0.32684       
        71455.36             39.2475              0.28863       
        76385.78             39.2293              0.25432       
        81656.4              39.2118              0.22342       
        87290.69             39.1946              0.19588       
        93313.74             39.1782              0.17174       
        99752.39             39.1628              0.15058       
        106635.3             39.1484              0.13204       
        113993.1              39.135              0.11579       
        121858.7             39.1226              0.10154       
        130266.9             39.1111              0.089045      
        139255.3             39.1007              0.078093      
        148864.0              39.091              0.06849       
        159135.6             39.0823              0.060071      
        170115.9             39.0742              0.052689      
        181853.9             39.0669              0.046215      
        194401.8             39.0603              0.040538      
        207815.6             39.0543              0.03556       
        222154.8             39.0488              0.031194      
        237483.5             39.0439              0.027365      
        253869.9             39.0394              0.024007      
        271386.9             39.0354              0.021062      
        290112.6             39.0317              0.018478      
        310130.4             39.0285              0.016212      
        331529.4             39.0255              0.014224      
        354404.9             39.0228              0.01248       
        378858.8             39.0204              0.010951      
        405000.1             39.0183              0.009609      
        432945.1             39.0164             0.0084317      
