# Zr
# Form Factors from Chantler Tables
# DOI: https://dx.doi.org/10.18434/T4HS32
# automatically retrived 2019-02-27 using URL https://physics.nist.gov/cgi-bin/ffast/ffast.pl
#
# Z = 40
# f_rel = -0.30496 e/atom  (Relativistic correction estimate)
# f_NT = -0.0096221 e/atom (Nuclear Thomson correction)


#        E (eV)            f1 (e/atom)          f2 (e/atom)     
         10.69               8.63969               3.7546       
        11.42761             9.20229               3.8719       
        12.21612             9.79034               3.8448       
        13.05903              10.321               3.6795       
        13.9601              10.7704               3.399        
        14.92335             11.1106               3.0377       
        15.95306             11.3288               2.6337       
        17.05382             11.4247               2.2215       
        18.23053             11.4062               1.8295       
        19.48844             11.2852               1.4775       
        20.83314             11.0699               1.175        
        22.27063             10.7559              0.92388       
        23.8073              10.3102              0.72105       
        25.45001             9.62155              0.56055       
        27.20606             8.21966              0.43549       
         28.126              6.29704              0.38425       
        28.5565              3.21432               0.363        
        28.6713              -0.5923               0.3576       
        28.8435               3.5496               7.9002       
        29.08327             6.11659               7.6864       
         29.274              7.19898               7.5218       
        31.09002             10.9926               6.1658       
        33.23523             12.3938               4.9447       
        35.52846             12.9928               3.9611       
        37.97993             13.2238               3.1838       
        40.60054             13.2621               2.5776       
        43.40198             13.1953               2.1087       
        46.39671             13.0678               1.7474       
        49.59809             12.8901               1.4693       
         50.274               12.841               1.4213       
        51.0435              12.7552               1.3703       
        51.2487              12.6876               1.3573       
        51.5565              12.7297               1.4517       
         52.326              12.7431               1.4103       
        53.02035             12.7301               1.3757       
        56.67876              12.615               1.2296       
        60.58959              12.484               1.1224       
        64.77028             12.3506               1.0443       
        69.23942             12.2161              0.98836       
        74.01695              12.079              0.94929       
        79.12411             11.9368              0.92428       
        84.58368             11.7864              0.90958       
        90.41995             11.6299              0.90237       
        96.65893             11.4486              0.90088       
        103.3284             11.2422              0.90376       
        110.4581             11.0023              0.90996       
        118.0797             10.7172              0.91865       
        126.2272             10.3714              0.92912       
        134.9368             9.94174              0.94071       
        144.2475             9.39145              0.95287       
        154.2005             8.65667               0.9651       
        164.8404             7.59071              0.97697       
        176.2144             5.62572              0.98807       
         176.4               5.57321              0.98824       
        178.752              4.67369              0.99032       
         179.1               4.45684              0.99062       
         179.82              3.60635              0.99124       
         180.9               3.89674               2.3162       
        181.488               3.8567               2.3505       
        182.2176             3.43839               2.3941       
        183.312              3.83947               3.3624       
         183.6               3.89979               3.3916       
        186.048              4.02739               3.6524       
        188.3732             3.95244               3.9221       
        201.3709             3.06524               5.8955       
        215.2655             2.61432               8.5578       
        230.1188             2.94879               11.475       
        245.997              4.10791               14.289       
        262.9708             5.95134               16.688       
        281.1158             8.21365               18.468       
        300.5128              10.548               19.558       
        321.2482             12.3356               19.988       
         323.89              12.4034                20.0        
        328.8475             11.9981                20.0        
        330.1695              11.064               19.996       
        332.1525             12.2979               22.058       
        337.316              13.6414               22.04        
        342.479              14.1694               21.998       
        343.4143             14.0923               21.989       
        343.8558             13.9242               21.984       
        345.921              14.6887               22.86        
        351.084              15.7956               22.798       
        367.1099             18.0251               22.504       
        392.4405             20.5907               21.81        
        419.5189             22.4759               20.892       
        421.694              22.5688               20.814       
        428.1485             22.6184               20.58        
        429.8697             22.2665               20.518       
        432.4515             22.9066               21.338       
        438.906              23.7239               21.102       
        448.4657             24.5159               20.752       
        479.4098             26.3946               19.628       
        512.4891             27.8803               18.475       
        547.8508             29.1158               17.321       
        585.6525             30.1279               16.183       
        626.0625             30.9657               15.083       
        669.2609             31.6585               14.029       
        715.4399             32.2301               13.025       
        764.8052             32.6986               12.066       
        817.5768             33.0705               11.155       
        873.9896             33.3583               10.297       
        934.2948              33.574               9.4945       
        998.7612             33.7337               8.7469       
        1067.676             33.8779               7.9335       
        1141.345              33.885                7.2         
        1220.098             33.8089               6.5408       
        1304.285             33.6698               5.949        
        1394.281             33.4666               5.3904       
        1490.486              33.175               4.874        
        1593.329             32.7836               4.4137       
        1703.269              32.263               4.0029       
        1820.795              31.543               3.6307       
        1946.43              30.4556               3.2965       
        2080.733             28.4688               2.9969       
        2177.854             25.0258                2.81        
        2211.189             21.0778               2.7507       
        2220.078             16.6305               2.7353       
        2224.304              16.201               11.335       
        2233.412             20.8476               11.245       
        2260.566              23.823               10.983       
        2266.746             24.0772               10.925       
        2295.166             23.9079               10.663       
        2304.393             22.1098               10.581       
        2318.233             24.7235               14.67        
        2352.834             27.5108               14.271       
        2377.781             28.5758               14.007       
        2480.968             30.7315               13.041       
        2518.942             30.5892               12.728       
        2529.068              29.784               12.648       
        2541.848             30.8105               14.446       
        2544.258             30.9762               14.426       
        2582.232             32.3607               14.114       
        2717.235             34.5926               13.113       
        2904.724             36.3503               11.927       
        3105.15              37.5776               10.765       
        3319.406             38.4098               9.6735       
        3548.445             38.9875               8.6866       
        3793.288             39.3928               7.8053       
        4055.024             39.6799               7.0192       
        4334.821             39.8855               6.3175       
        4633.924             40.1747               5.6673       
        4953.664             40.2531               5.0616       
        5295.467              40.322               4.5149       
        5660.855              40.311               4.0262       
        6051.453             40.2733               3.5936       
        6469.004             40.2179               3.2086       
        6915.365             40.1495               2.8651       
        7392.525             40.0724               2.5609       
        7902.609             39.9904               2.2911       
        8447.89              39.9071               2.051        
        9030.794             39.8312               1.8332       
        9653.919             39.7383               1.6261       
        10320.04             39.6345               1.4376       
        11032.12             39.5203               1.2709       
        11793.34             39.3936               1.1197       
        12607.08             39.2506              0.98744       
        13476.97             39.0847              0.87156       
        14406.88             38.8813              0.76995       
        15400.95             38.6073              0.68082       
        16463.62             38.1655              0.60256       
        17599.61             36.9666              0.53379       
        17637.65              36.873              0.53171       
        17907.61             35.5375              0.51731       
        17979.6              33.9278              0.51357       
        18087.59             35.5694               3.6815       
        18357.55             37.0539               3.5783       
        18813.98             37.9492               3.4138       
        20112.15             38.9585               3.0491       
        21499.88             39.4548               2.7406       
        22983.38             39.7696               2.4665       
        24569.23             39.9873               2.2109       
        26264.5              40.1362               1.9773       
        28076.76             40.2404               1.761        
        30014.05             40.3063               1.5667       
        32085.02             40.3483               1.3939       
        34298.89             40.3736               1.2404       
        36665.51             40.4228               1.1015       
        39195.43             40.4242              0.97302       
        41899.92             40.4164              0.85957       
        44791.01             40.4028              0.75942       
        47881.59             40.3857              0.67097       
        51185.42             40.3663              0.59279       
        54717.21             40.3456              0.52368       
        58492.7              40.3244               0.4624       
        62528.7              40.3032              0.40832       
        66843.18             40.2823              0.36059       
        71455.36             40.2622              0.31845       
        76385.78             40.2432              0.28126       
        81656.4              40.2252              0.24752       
        87290.69             40.2075              0.21714       
        93313.74             40.1904              0.19051       
        99752.39             40.1742              0.16714       
        106635.3              40.159              0.14666       
        113993.1             40.1449              0.12868       
        121858.7             40.1318              0.11292       
        130266.9             40.1196              0.099091      
        139255.3             40.1085              0.08696       
        148864.0             40.0982              0.076317      
        159135.6             40.0888              0.066979      
        170115.9             40.0803              0.058786      
        181853.9             40.0724              0.051598      
        194401.8             40.0653              0.04529       
        207815.6             40.0588              0.039755      
        222154.8              40.053              0.034897      
        237483.5             40.0477              0.030634      
        253869.9             40.0428              0.026893      
        271386.9             40.0385              0.023609      
        290112.6             40.0346              0.020727      
        310130.4              40.031              0.018198      
        331529.4             40.0278              0.015978      
        354404.9             40.0249              0.014029      
        378858.8             40.0223              0.012318      
        405000.1              40.02               0.010816      
        432945.1             40.0179             0.0094972      
